attack,muV_budget,eps_uV_per_channel,seed,clean_acc,adv_acc,ASR,clean_acc_per_class,adv_acc_per_class,spearman_IG,roi_share_clean_IG,roi_share_adv_IG,roi_delta_share_IG,roi_spearman_IG,laterality_clean_IG,laterality_adv_IG,laterality_delta_IG,top5_clean_IG,top5_adv_IG,subject_id,model_name
FGSM,0.25,"[0.2595927119255066, 0.24246302247047424, 0.26307907700538635, 0.27535480260849, 0.2663503587245941, 0.25448399782180786, 0.19535844027996063, 0.2315744310617447, 0.25157639384269714, 0.26958170533180237, 0.2582281231880188, 0.2488684356212616, 0.22476166486740112, 0.23873959481716156, 0.24598656594753265, 0.2548787593841553, 0.2501382529735565, 0.2516990005970001, 0.2438618242740631, 0.24961088597774506, 0.2481745034456253, 0.2498617321252823]",42,0.6631944179534912,0.0243055559694767,0.9756944440305232,"[0.4166666666666667, 0.6527777777777778, 0.8472222222222222, 0.7361111111111112]","[0.0, 0.027777777777777776, 0.06944444444444445, 0.0]",0.9143139469226428,0.1250101503569105,0.1269757067637974,0.0019655564068869,0.953125,-0.0552729563631857,-0.0593472801949519,-0.0040743238317661,"['FC3', 'POz', 'P1', 'CP4', 'C2']","['POz', 'C2', 'P1', 'Cz', 'CP4']",1,EEGNet
FGSM,0.5,"[0.5191854238510132, 0.4849260449409485, 0.5261581540107727, 0.55070960521698, 0.5327007174491882, 0.5089679956436157, 0.39071688055992126, 0.4631488621234894, 0.5031527876853943, 0.5391634106636047, 0.5164562463760376, 0.4977368712425232, 0.44952332973480225, 0.4774791896343231, 0.4919731318950653, 0.5097575187683105, 0.500276505947113, 0.5033980011940002, 0.4877236485481262, 0.4992217719554901, 0.4963490068912506, 0.4997234642505646]",42,0.6631944179534912,0.0,1.0,"[0.4166666666666667, 0.6527777777777778, 0.8472222222222222, 0.7361111111111112]","[0.0, 0.0, 0.0, 0.0]",0.9143139469226428,0.1250101503569105,0.1269757067637974,0.0019655564068869,0.953125,-0.0552729563631857,-0.0593472801949519,-0.0040743238317661,"['FC3', 'POz', 'P1', 'CP4', 'C2']","['POz', 'C2', 'P1', 'Cz', 'CP4']",1,EEGNet
FGSM,1.0,"[1.0383708477020264, 0.969852089881897, 1.0523163080215454, 1.10141921043396, 1.0654014348983765, 1.0179359912872314, 0.7814337611198425, 0.9262977242469788, 1.0063055753707886, 1.0783268213272095, 1.0329124927520752, 0.9954737424850464, 0.8990466594696045, 0.9549583792686462, 0.9839462637901306, 1.019515037536621, 1.000553011894226, 1.0067960023880005, 0.9754472970962524, 0.9984435439109802, 0.9926980137825012, 0.9994469285011292]",42,0.6631944179534912,0.0,1.0,"[0.4166666666666667, 0.6527777777777778, 0.8472222222222222, 0.7361111111111112]","[0.0, 0.0, 0.0, 0.0]",0.9143139469226428,0.1250101503569105,0.1269757067637974,0.0019655564068869,0.953125,-0.0552729563631857,-0.0593472801949519,-0.0040743238317661,"['FC3', 'POz', 'P1', 'CP4', 'C2']","['POz', 'C2', 'P1', 'Cz', 'CP4']",1,EEGNet
FGSM,2.0,"[2.0767416954040527, 1.939704179763794, 2.104632616043091, 2.20283842086792, 2.130802869796753, 2.035871982574463, 1.562867522239685, 1.8525954484939575, 2.012611150741577, 2.156653642654419, 2.0658249855041504, 1.9909474849700928, 1.798093318939209, 1.9099167585372925, 1.9678925275802612, 2.039030075073242, 2.001106023788452, 2.013592004776001, 1.9508945941925049, 1.9968870878219604, 1.9853960275650024, 1.9988938570022583]",42,0.6631944179534912,0.0,1.0,"[0.4166666666666667, 0.6527777777777778, 0.8472222222222222, 0.7361111111111112]","[0.0, 0.0, 0.0, 0.0]",0.9143139469226428,0.1250101503569105,0.1269757067637974,0.0019655564068869,0.953125,-0.0552729563631857,-0.0593472801949519,-0.0040743238317661,"['FC3', 'POz', 'P1', 'CP4', 'C2']","['POz', 'C2', 'P1', 'Cz', 'CP4']",1,EEGNet
PGD,0.25,"[0.2595927119255066, 0.24246302247047424, 0.26307907700538635, 0.27535480260849, 0.2663503587245941, 0.25448399782180786, 0.19535844027996063, 0.2315744310617447, 0.25157639384269714, 0.26958170533180237, 0.2582281231880188, 0.2488684356212616, 0.22476166486740112, 0.23873959481716156, 0.24598656594753265, 0.2548787593841553, 0.2501382529735565, 0.2516990005970001, 0.2438618242740631, 0.24961088597774506, 0.2481745034456253, 0.2498617321252823]",42,0.6631944179534912,0.0,1.0,"[0.4166666666666667, 0.6527777777777778, 0.8472222222222222, 0.7361111111111112]","[0.0, 0.0, 0.0, 0.0]",0.9107583992094864,0.1250101503569105,0.127037851230463,0.0020277008735525,0.95703125,-0.0552729563631857,-0.0616469247663631,-0.0063739684031773,"['FC3', 'POz', 'P1', 'CP4', 'C2']","['POz', 'C2', 'P1', 'Cz', 'CP4']",1,EEGNet
PGD,0.5,"[0.5191854238510132, 0.4849260449409485, 0.5261581540107727, 0.55070960521698, 0.5327007174491882, 0.5089679956436157, 0.39071688055992126, 0.4631488621234894, 0.5031527876853943, 0.5391634106636047, 0.5164562463760376, 0.4977368712425232, 0.44952332973480225, 0.4774791896343231, 0.4919731318950653, 0.5097575187683105, 0.500276505947113, 0.5033980011940002, 0.4877236485481262, 0.4992217719554901, 0.4963490068912506, 0.4997234642505646]",42,0.6631944179534912,0.0,1.0,"[0.4166666666666667, 0.6527777777777778, 0.8472222222222222, 0.7361111111111112]","[0.0, 0.0, 0.0, 0.0]",0.9107583992094864,0.1250101503569105,0.127037851230463,0.0020277008735525,0.95703125,-0.0552729563631857,-0.0616469247663631,-0.0063739684031773,"['FC3', 'POz', 'P1', 'CP4', 'C2']","['POz', 'C2', 'P1', 'Cz', 'CP4']",1,EEGNet
PGD,1.0,"[1.0383708477020264, 0.969852089881897, 1.0523163080215454, 1.10141921043396, 1.0654014348983765, 1.0179359912872314, 0.7814337611198425, 0.9262977242469788, 1.0063055753707886, 1.0783268213272095, 1.0329124927520752, 0.9954737424850464, 0.8990466594696045, 0.9549583792686462, 0.9839462637901306, 1.019515037536621, 1.000553011894226, 1.0067960023880005, 0.9754472970962524, 0.9984435439109802, 0.9926980137825012, 0.9994469285011292]",42,0.6631944179534912,0.0,1.0,"[0.4166666666666667, 0.6527777777777778, 0.8472222222222222, 0.7361111111111112]","[0.0, 0.0, 0.0, 0.0]",0.9107583992094864,0.1250101503569105,0.127037851230463,0.0020277008735525,0.95703125,-0.0552729563631857,-0.0616469247663631,-0.0063739684031773,"['FC3', 'POz', 'P1', 'CP4', 'C2']","['POz', 'C2', 'P1', 'Cz', 'CP4']",1,EEGNet
PGD,2.0,"[2.0767416954040527, 1.939704179763794, 2.104632616043091, 2.20283842086792, 2.130802869796753, 2.035871982574463, 1.562867522239685, 1.8525954484939575, 2.012611150741577, 2.156653642654419, 2.0658249855041504, 1.9909474849700928, 1.798093318939209, 1.9099167585372925, 1.9678925275802612, 2.039030075073242, 2.001106023788452, 2.013592004776001, 1.9508945941925049, 1.9968870878219604, 1.9853960275650024, 1.9988938570022583]",42,0.6631944179534912,0.0,1.0,"[0.4166666666666667, 0.6527777777777778, 0.8472222222222222, 0.7361111111111112]","[0.0, 0.0, 0.0, 0.0]",0.9107583992094864,0.1250101503569105,0.127037851230463,0.0020277008735525,0.95703125,-0.0552729563631857,-0.0616469247663631,-0.0063739684031773,"['FC3', 'POz', 'P1', 'CP4', 'C2']","['POz', 'C2', 'P1', 'Cz', 'CP4']",1,EEGNet
FGSM_LP,0.25,"[0.2595927119255066, 0.24246302247047424, 0.26307907700538635, 0.27535480260849, 0.2663503587245941, 0.25448399782180786, 0.19535844027996063, 0.2315744310617447, 0.25157639384269714, 0.26958170533180237, 0.2582281231880188, 0.2488684356212616, 0.22476166486740112, 0.23873959481716156, 0.24598656594753265, 0.2548787593841553, 0.2501382529735565, 0.2516990005970001, 0.2438618242740631, 0.24961088597774506, 0.2481745034456253, 0.2498617321252823]",42,0.6631944179534912,0.5520833134651184,0.4479166865348816,"[0.4166666666666667, 0.6527777777777778, 0.8472222222222222, 0.7361111111111112]","[0.3472222222222222, 0.5416666666666666, 0.7083333333333334, 0.6111111111111112]",0.99707968661773,0.1250101503569105,0.1252241256478896,0.000213975290979,0.98828125,-0.0552729563631857,-0.0563561797079206,-0.0010832233447349,"['FC3', 'POz', 'P1', 'CP4', 'C2']","['POz', 'FC3', 'P1', 'CP4', 'C2']",1,EEGNet
FGSM_LP,0.5,"[0.5191854238510132, 0.4849260449409485, 0.5261581540107727, 0.55070960521698, 0.5327007174491882, 0.5089679956436157, 0.39071688055992126, 0.4631488621234894, 0.5031527876853943, 0.5391634106636047, 0.5164562463760376, 0.4977368712425232, 0.44952332973480225, 0.4774791896343231, 0.4919731318950653, 0.5097575187683105, 0.500276505947113, 0.5033980011940002, 0.4877236485481262, 0.4992217719554901, 0.4963490068912506, 0.4997234642505646]",42,0.6631944179534912,0.2222222238779068,0.7777777761220932,"[0.4166666666666667, 0.6527777777777778, 0.8472222222222222, 0.7361111111111112]","[0.08333333333333333, 0.2777777777777778, 0.25, 0.2777777777777778]",0.99707968661773,0.1250101503569105,0.1252241256478896,0.000213975290979,0.98828125,-0.0552729563631857,-0.0563561797079206,-0.0010832233447349,"['FC3', 'POz', 'P1', 'CP4', 'C2']","['POz', 'FC3', 'P1', 'CP4', 'C2']",1,EEGNet
FGSM_LP,1.0,"[1.0383708477020264, 0.969852089881897, 1.0523163080215454, 1.10141921043396, 1.0654014348983765, 1.0179359912872314, 0.7814337611198425, 0.9262977242469788, 1.0063055753707886, 1.0783268213272095, 1.0329124927520752, 0.9954737424850464, 0.8990466594696045, 0.9549583792686462, 0.9839462637901306, 1.019515037536621, 1.000553011894226, 1.0067960023880005, 0.9754472970962524, 0.9984435439109802, 0.9926980137825012, 0.9994469285011292]",42,0.6631944179534912,0.0034722222480922,0.9965277777519076,"[0.4166666666666667, 0.6527777777777778, 0.8472222222222222, 0.7361111111111112]","[0.0, 0.0, 0.0, 0.013888888888888888]",0.99707968661773,0.1250101503569105,0.1252241256478896,0.000213975290979,0.98828125,-0.0552729563631857,-0.0563561797079206,-0.0010832233447349,"['FC3', 'POz', 'P1', 'CP4', 'C2']","['POz', 'FC3', 'P1', 'CP4', 'C2']",1,EEGNet
FGSM_LP,2.0,"[2.0767416954040527, 1.939704179763794, 2.104632616043091, 2.20283842086792, 2.130802869796753, 2.035871982574463, 1.562867522239685, 1.8525954484939575, 2.012611150741577, 2.156653642654419, 2.0658249855041504, 1.9909474849700928, 1.798093318939209, 1.9099167585372925, 1.9678925275802612, 2.039030075073242, 2.001106023788452, 2.013592004776001, 1.9508945941925049, 1.9968870878219604, 1.9853960275650024, 1.9988938570022583]",42,0.6631944179534912,0.0,1.0,"[0.4166666666666667, 0.6527777777777778, 0.8472222222222222, 0.7361111111111112]","[0.0, 0.0, 0.0, 0.0]",0.99707968661773,0.1250101503569105,0.1252241256478896,0.000213975290979,0.98828125,-0.0552729563631857,-0.0563561797079206,-0.0010832233447349,"['FC3', 'POz', 'P1', 'CP4', 'C2']","['POz', 'FC3', 'P1', 'CP4', 'C2']",1,EEGNet
PGD_LP,0.25,"[0.2595927119255066, 0.24246302247047424, 0.26307907700538635, 0.27535480260849, 0.2663503587245941, 0.25448399782180786, 0.19535844027996063, 0.2315744310617447, 0.25157639384269714, 0.26958170533180237, 0.2582281231880188, 0.2488684356212616, 0.22476166486740112, 0.23873959481716156, 0.24598656594753265, 0.2548787593841553, 0.2501382529735565, 0.2516990005970001, 0.2438618242740631, 0.24961088597774506, 0.2481745034456253, 0.2498617321252823]",42,0.6631944179534912,0.5902777910232544,0.4097222089767456,"[0.4166666666666667, 0.6527777777777778, 0.8472222222222222, 0.7361111111111112]","[0.375, 0.5694444444444444, 0.7361111111111112, 0.6805555555555556]",0.9967885375494072,0.1250101503569105,0.1252572912644025,0.000247140907492,0.984375,-0.0552729563631857,-0.0574213368953307,-0.002148380532145,"['FC3', 'POz', 'P1', 'CP4', 'C2']","['POz', 'FC3', 'P1', 'CP4', 'C2']",1,EEGNet
PGD_LP,0.5,"[0.5191854238510132, 0.4849260449409485, 0.5261581540107727, 0.55070960521698, 0.5327007174491882, 0.5089679956436157, 0.39071688055992126, 0.4631488621234894, 0.5031527876853943, 0.5391634106636047, 0.5164562463760376, 0.4977368712425232, 0.44952332973480225, 0.4774791896343231, 0.4919731318950653, 0.5097575187683105, 0.500276505947113, 0.5033980011940002, 0.4877236485481262, 0.4992217719554901, 0.4963490068912506, 0.4997234642505646]",42,0.6631944179534912,0.3263888955116272,0.6736111044883728,"[0.4166666666666667, 0.6527777777777778, 0.8472222222222222, 0.7361111111111112]","[0.2361111111111111, 0.3611111111111111, 0.2916666666666667, 0.4166666666666667]",0.9967885375494072,0.1250101503569105,0.1252572912644025,0.000247140907492,0.984375,-0.0552729563631857,-0.0574213368953307,-0.002148380532145,"['FC3', 'POz', 'P1', 'CP4', 'C2']","['POz', 'FC3', 'P1', 'CP4', 'C2']",1,EEGNet
PGD_LP,1.0,"[1.0383708477020264, 0.969852089881897, 1.0523163080215454, 1.10141921043396, 1.0654014348983765, 1.0179359912872314, 0.7814337611198425, 0.9262977242469788, 1.0063055753707886, 1.0783268213272095, 1.0329124927520752, 0.9954737424850464, 0.8990466594696045, 0.9549583792686462, 0.9839462637901306, 1.019515037536621, 1.000553011894226, 1.0067960023880005, 0.9754472970962524, 0.9984435439109802, 0.9926980137825012, 0.9994469285011292]",42,0.6631944179534912,0.020833333954215,0.979166666045785,"[0.4166666666666667, 0.6527777777777778, 0.8472222222222222, 0.7361111111111112]","[0.0, 0.027777777777777776, 0.0, 0.05555555555555555]",0.9967885375494072,0.1250101503569105,0.1252572912644025,0.000247140907492,0.984375,-0.0552729563631857,-0.0574213368953307,-0.002148380532145,"['FC3', 'POz', 'P1', 'CP4', 'C2']","['POz', 'FC3', 'P1', 'CP4', 'C2']",1,EEGNet
PGD_LP,2.0,"[2.0767416954040527, 1.939704179763794, 2.104632616043091, 2.20283842086792, 2.130802869796753, 2.035871982574463, 1.562867522239685, 1.8525954484939575, 2.012611150741577, 2.156653642654419, 2.0658249855041504, 1.9909474849700928, 1.798093318939209, 1.9099167585372925, 1.9678925275802612, 2.039030075073242, 2.001106023788452, 2.013592004776001, 1.9508945941925049, 1.9968870878219604, 1.9853960275650024, 1.9988938570022583]",42,0.6631944179534912,0.0,1.0,"[0.4166666666666667, 0.6527777777777778, 0.8472222222222222, 0.7361111111111112]","[0.0, 0.0, 0.0, 0.0]",0.9967885375494072,0.1250101503569105,0.1252572912644025,0.000247140907492,0.984375,-0.0552729563631857,-0.0574213368953307,-0.002148380532145,"['FC3', 'POz', 'P1', 'CP4', 'C2']","['POz', 'FC3', 'P1', 'CP4', 'C2']",1,EEGNet
DeepFool_L2,,,42,0.6631944179534912,0.1006944477558136,0.8993055522441864,,,0.94529926595144,0.1250101503569105,0.1245298826058957,-0.0004802677510148,0.96875,-0.0552729563631857,-0.0721512228316673,-0.0168782664684815,"['FC3', 'POz', 'P1', 'CP4', 'C2']","['POz', 'FC3', 'CP4', 'P1', 'C2']",1,EEGNet
FGSM,0.25,"[0.2595927119255066, 0.24246302247047424, 0.26307907700538635, 0.27535480260849, 0.2663503587245941, 0.25448399782180786, 0.19535844027996063, 0.2315744310617447, 0.25157639384269714, 0.26958170533180237, 0.2582281231880188, 0.2488684356212616, 0.22476166486740112, 0.23873959481716156, 0.24598656594753265, 0.2548787593841553, 0.2501382529735565, 0.2516990005970001, 0.2438618242740631, 0.24961088597774506, 0.2481745034456253, 0.2498617321252823]",123,0.6354166865348816,0.0277777779847383,0.9722222220152617,"[0.5277777777777778, 0.5694444444444444, 0.8194444444444444, 0.625]","[0.0, 0.0, 0.1111111111111111, 0.0]",0.952710333145116,0.1382569273414634,0.1313551350355766,-0.0069017923058867,0.94921875,-0.0811563631904801,-0.1100519091981257,-0.0288955460076456,"['Cz', 'CP4', 'FC2', 'CP3', 'C2']","['FC2', 'CP4', 'Cz', 'CP3', 'C2']",1,EEGNet
FGSM,0.5,"[0.5191854238510132, 0.4849260449409485, 0.5261581540107727, 0.55070960521698, 0.5327007174491882, 0.5089679956436157, 0.39071688055992126, 0.4631488621234894, 0.5031527876853943, 0.5391634106636047, 0.5164562463760376, 0.4977368712425232, 0.44952332973480225, 0.4774791896343231, 0.4919731318950653, 0.5097575187683105, 0.500276505947113, 0.5033980011940002, 0.4877236485481262, 0.4992217719554901, 0.4963490068912506, 0.4997234642505646]",123,0.6354166865348816,0.0,1.0,"[0.5277777777777778, 0.5694444444444444, 0.8194444444444444, 0.625]","[0.0, 0.0, 0.0, 0.0]",0.952710333145116,0.1382569273414634,0.1313551350355766,-0.0069017923058867,0.94921875,-0.0811563631904801,-0.1100519091981257,-0.0288955460076456,"['Cz', 'CP4', 'FC2', 'CP3', 'C2']","['FC2', 'CP4', 'Cz', 'CP3', 'C2']",1,EEGNet
FGSM,1.0,"[1.0383708477020264, 0.969852089881897, 1.0523163080215454, 1.10141921043396, 1.0654014348983765, 1.0179359912872314, 0.7814337611198425, 0.9262977242469788, 1.0063055753707886, 1.0783268213272095, 1.0329124927520752, 0.9954737424850464, 0.8990466594696045, 0.9549583792686462, 0.9839462637901306, 1.019515037536621, 1.000553011894226, 1.0067960023880005, 0.9754472970962524, 0.9984435439109802, 0.9926980137825012, 0.9994469285011292]",123,0.6354166865348816,0.0,1.0,"[0.5277777777777778, 0.5694444444444444, 0.8194444444444444, 0.625]","[0.0, 0.0, 0.0, 0.0]",0.952710333145116,0.1382569273414634,0.1313551350355766,-0.0069017923058867,0.94921875,-0.0811563631904801,-0.1100519091981257,-0.0288955460076456,"['Cz', 'CP4', 'FC2', 'CP3', 'C2']","['FC2', 'CP4', 'Cz', 'CP3', 'C2']",1,EEGNet
FGSM,2.0,"[2.0767416954040527, 1.939704179763794, 2.104632616043091, 2.20283842086792, 2.130802869796753, 2.035871982574463, 1.562867522239685, 1.8525954484939575, 2.012611150741577, 2.156653642654419, 2.0658249855041504, 1.9909474849700928, 1.798093318939209, 1.9099167585372925, 1.9678925275802612, 2.039030075073242, 2.001106023788452, 2.013592004776001, 1.9508945941925049, 1.9968870878219604, 1.9853960275650024, 1.9988938570022583]",123,0.6354166865348816,0.0,1.0,"[0.5277777777777778, 0.5694444444444444, 0.8194444444444444, 0.625]","[0.0, 0.0, 0.0, 0.0]",0.952710333145116,0.1382569273414634,0.1313551350355766,-0.0069017923058867,0.94921875,-0.0811563631904801,-0.1100519091981257,-0.0288955460076456,"['Cz', 'CP4', 'FC2', 'CP3', 'C2']","['FC2', 'CP4', 'Cz', 'CP3', 'C2']",1,EEGNet
PGD,0.25,"[0.2595927119255066, 0.24246302247047424, 0.26307907700538635, 0.27535480260849, 0.2663503587245941, 0.25448399782180786, 0.19535844027996063, 0.2315744310617447, 0.25157639384269714, 0.26958170533180237, 0.2582281231880188, 0.2488684356212616, 0.22476166486740112, 0.23873959481716156, 0.24598656594753265, 0.2548787593841553, 0.2501382529735565, 0.2516990005970001, 0.2438618242740631, 0.24961088597774506, 0.2481745034456253, 0.2498617321252823]",123,0.6354166865348816,0.0,1.0,"[0.5277777777777778, 0.5694444444444444, 0.8194444444444444, 0.625]","[0.0, 0.0, 0.0, 0.0]",0.9520927442123096,0.1382569273414634,0.131588105912362,-0.0066688214291013,0.953125,-0.0811563631904801,-0.1082709769344381,-0.0271146137439579,"['Cz', 'CP4', 'FC2', 'CP3', 'C2']","['FC2', 'CP4', 'Cz', 'CP3', 'C2']",1,EEGNet
PGD,0.5,"[0.5191854238510132, 0.4849260449409485, 0.5261581540107727, 0.55070960521698, 0.5327007174491882, 0.5089679956436157, 0.39071688055992126, 0.4631488621234894, 0.5031527876853943, 0.5391634106636047, 0.5164562463760376, 0.4977368712425232, 0.44952332973480225, 0.4774791896343231, 0.4919731318950653, 0.5097575187683105, 0.500276505947113, 0.5033980011940002, 0.4877236485481262, 0.4992217719554901, 0.4963490068912506, 0.4997234642505646]",123,0.6354166865348816,0.0,1.0,"[0.5277777777777778, 0.5694444444444444, 0.8194444444444444, 0.625]","[0.0, 0.0, 0.0, 0.0]",0.9520927442123096,0.1382569273414634,0.131588105912362,-0.0066688214291013,0.953125,-0.0811563631904801,-0.1082709769344381,-0.0271146137439579,"['Cz', 'CP4', 'FC2', 'CP3', 'C2']","['FC2', 'CP4', 'Cz', 'CP3', 'C2']",1,EEGNet
PGD,1.0,"[1.0383708477020264, 0.969852089881897, 1.0523163080215454, 1.10141921043396, 1.0654014348983765, 1.0179359912872314, 0.7814337611198425, 0.9262977242469788, 1.0063055753707886, 1.0783268213272095, 1.0329124927520752, 0.9954737424850464, 0.8990466594696045, 0.9549583792686462, 0.9839462637901306, 1.019515037536621, 1.000553011894226, 1.0067960023880005, 0.9754472970962524, 0.9984435439109802, 0.9926980137825012, 0.9994469285011292]",123,0.6354166865348816,0.0,1.0,"[0.5277777777777778, 0.5694444444444444, 0.8194444444444444, 0.625]","[0.0, 0.0, 0.0, 0.0]",0.9520927442123096,0.1382569273414634,0.131588105912362,-0.0066688214291013,0.953125,-0.0811563631904801,-0.1082709769344381,-0.0271146137439579,"['Cz', 'CP4', 'FC2', 'CP3', 'C2']","['FC2', 'CP4', 'Cz', 'CP3', 'C2']",1,EEGNet
PGD,2.0,"[2.0767416954040527, 1.939704179763794, 2.104632616043091, 2.20283842086792, 2.130802869796753, 2.035871982574463, 1.562867522239685, 1.8525954484939575, 2.012611150741577, 2.156653642654419, 2.0658249855041504, 1.9909474849700928, 1.798093318939209, 1.9099167585372925, 1.9678925275802612, 2.039030075073242, 2.001106023788452, 2.013592004776001, 1.9508945941925049, 1.9968870878219604, 1.9853960275650024, 1.9988938570022583]",123,0.6354166865348816,0.0,1.0,"[0.5277777777777778, 0.5694444444444444, 0.8194444444444444, 0.625]","[0.0, 0.0, 0.0, 0.0]",0.9520927442123096,0.1382569273414634,0.131588105912362,-0.0066688214291013,0.953125,-0.0811563631904801,-0.1082709769344381,-0.0271146137439579,"['Cz', 'CP4', 'FC2', 'CP3', 'C2']","['FC2', 'CP4', 'Cz', 'CP3', 'C2']",1,EEGNet
FGSM_LP,0.25,"[0.2595927119255066, 0.24246302247047424, 0.26307907700538635, 0.27535480260849, 0.2663503587245941, 0.25448399782180786, 0.19535844027996063, 0.2315744310617447, 0.25157639384269714, 0.26958170533180237, 0.2582281231880188, 0.2488684356212616, 0.22476166486740112, 0.23873959481716156, 0.24598656594753265, 0.2548787593841553, 0.2501382529735565, 0.2516990005970001, 0.2438618242740631, 0.24961088597774506, 0.2481745034456253, 0.2498617321252823]",123,0.6354166865348816,0.4548611044883728,0.5451388955116272,"[0.5277777777777778, 0.5694444444444444, 0.8194444444444444, 0.625]","[0.3194444444444444, 0.3472222222222222, 0.6805555555555556, 0.4722222222222222]",0.998826581027668,0.1382569273414634,0.1379418845778523,-0.000315042763611,1.0,-0.0811563631904801,-0.082649372564558,-0.0014930093740778,"['Cz', 'CP4', 'FC2', 'CP3', 'C2']","['Cz', 'CP4', 'FC2', 'CP3', 'C2']",1,EEGNet
FGSM_LP,0.5,"[0.5191854238510132, 0.4849260449409485, 0.5261581540107727, 0.55070960521698, 0.5327007174491882, 0.5089679956436157, 0.39071688055992126, 0.4631488621234894, 0.5031527876853943, 0.5391634106636047, 0.5164562463760376, 0.4977368712425232, 0.44952332973480225, 0.4774791896343231, 0.4919731318950653, 0.5097575187683105, 0.500276505947113, 0.5033980011940002, 0.4877236485481262, 0.4992217719554901, 0.4963490068912506, 0.4997234642505646]",123,0.6354166865348816,0.1805555522441864,0.8194444477558136,"[0.5277777777777778, 0.5694444444444444, 0.8194444444444444, 0.625]","[0.09722222222222222, 0.08333333333333333, 0.3333333333333333, 0.20833333333333334]",0.998826581027668,0.1382569273414634,0.1379418845778523,-0.000315042763611,1.0,-0.0811563631904801,-0.082649372564558,-0.0014930093740778,"['Cz', 'CP4', 'FC2', 'CP3', 'C2']","['Cz', 'CP4', 'FC2', 'CP3', 'C2']",1,EEGNet
FGSM_LP,1.0,"[1.0383708477020264, 0.969852089881897, 1.0523163080215454, 1.10141921043396, 1.0654014348983765, 1.0179359912872314, 0.7814337611198425, 0.9262977242469788, 1.0063055753707886, 1.0783268213272095, 1.0329124927520752, 0.9954737424850464, 0.8990466594696045, 0.9549583792686462, 0.9839462637901306, 1.019515037536621, 1.000553011894226, 1.0067960023880005, 0.9754472970962524, 0.9984435439109802, 0.9926980137825012, 0.9994469285011292]",123,0.6354166865348816,0.0034722222480922,0.9965277777519076,"[0.5277777777777778, 0.5694444444444444, 0.8194444444444444, 0.625]","[0.0, 0.0, 0.013888888888888888, 0.0]",0.998826581027668,0.1382569273414634,0.1379418845778523,-0.000315042763611,1.0,-0.0811563631904801,-0.082649372564558,-0.0014930093740778,"['Cz', 'CP4', 'FC2', 'CP3', 'C2']","['Cz', 'CP4', 'FC2', 'CP3', 'C2']",1,EEGNet
FGSM_LP,2.0,"[2.0767416954040527, 1.939704179763794, 2.104632616043091, 2.20283842086792, 2.130802869796753, 2.035871982574463, 1.562867522239685, 1.8525954484939575, 2.012611150741577, 2.156653642654419, 2.0658249855041504, 1.9909474849700928, 1.798093318939209, 1.9099167585372925, 1.9678925275802612, 2.039030075073242, 2.001106023788452, 2.013592004776001, 1.9508945941925049, 1.9968870878219604, 1.9853960275650024, 1.9988938570022583]",123,0.6354166865348816,0.0,1.0,"[0.5277777777777778, 0.5694444444444444, 0.8194444444444444, 0.625]","[0.0, 0.0, 0.0, 0.0]",0.998826581027668,0.1382569273414634,0.1379418845778523,-0.000315042763611,1.0,-0.0811563631904801,-0.082649372564558,-0.0014930093740778,"['Cz', 'CP4', 'FC2', 'CP3', 'C2']","['Cz', 'CP4', 'FC2', 'CP3', 'C2']",1,EEGNet
PGD_LP,0.25,"[0.2595927119255066, 0.24246302247047424, 0.26307907700538635, 0.27535480260849, 0.2663503587245941, 0.25448399782180786, 0.19535844027996063, 0.2315744310617447, 0.25157639384269714, 0.26958170533180237, 0.2582281231880188, 0.2488684356212616, 0.22476166486740112, 0.23873959481716156, 0.24598656594753265, 0.2548787593841553, 0.2501382529735565, 0.2516990005970001, 0.2438618242740631, 0.24961088597774506, 0.2481745034456253, 0.2498617321252823]",123,0.6354166865348816,0.5277777910232544,0.4722222089767456,"[0.5277777777777778, 0.5694444444444444, 0.8194444444444444, 0.625]","[0.4305555555555556, 0.4305555555555556, 0.7083333333333334, 0.5416666666666666]",0.9986942405420668,0.1382569273414634,0.1378983571662683,-0.000358570175195,0.99609375,-0.0811563631904801,-0.0825321441892268,-0.0013757809987466,"['Cz', 'CP4', 'FC2', 'CP3', 'C2']","['Cz', 'CP4', 'FC2', 'CP3', 'C2']",1,EEGNet
PGD_LP,0.5,"[0.5191854238510132, 0.4849260449409485, 0.5261581540107727, 0.55070960521698, 0.5327007174491882, 0.5089679956436157, 0.39071688055992126, 0.4631488621234894, 0.5031527876853943, 0.5391634106636047, 0.5164562463760376, 0.4977368712425232, 0.44952332973480225, 0.4774791896343231, 0.4919731318950653, 0.5097575187683105, 0.500276505947113, 0.5033980011940002, 0.4877236485481262, 0.4992217719554901, 0.4963490068912506, 0.4997234642505646]",123,0.6354166865348816,0.2916666567325592,0.7083333432674408,"[0.5277777777777778, 0.5694444444444444, 0.8194444444444444, 0.625]","[0.3055555555555556, 0.1527777777777778, 0.375, 0.3333333333333333]",0.9986942405420668,0.1382569273414634,0.1378983571662683,-0.000358570175195,0.99609375,-0.0811563631904801,-0.0825321441892268,-0.0013757809987466,"['Cz', 'CP4', 'FC2', 'CP3', 'C2']","['Cz', 'CP4', 'FC2', 'CP3', 'C2']",1,EEGNet
PGD_LP,1.0,"[1.0383708477020264, 0.969852089881897, 1.0523163080215454, 1.10141921043396, 1.0654014348983765, 1.0179359912872314, 0.7814337611198425, 0.9262977242469788, 1.0063055753707886, 1.0783268213272095, 1.0329124927520752, 0.9954737424850464, 0.8990466594696045, 0.9549583792686462, 0.9839462637901306, 1.019515037536621, 1.000553011894226, 1.0067960023880005, 0.9754472970962524, 0.9984435439109802, 0.9926980137825012, 0.9994469285011292]",123,0.6354166865348816,0.0243055559694767,0.9756944440305232,"[0.5277777777777778, 0.5694444444444444, 0.8194444444444444, 0.625]","[0.013888888888888888, 0.013888888888888888, 0.013888888888888888, 0.05555555555555555]",0.9986942405420668,0.1382569273414634,0.1378983571662683,-0.000358570175195,0.99609375,-0.0811563631904801,-0.0825321441892268,-0.0013757809987466,"['Cz', 'CP4', 'FC2', 'CP3', 'C2']","['Cz', 'CP4', 'FC2', 'CP3', 'C2']",1,EEGNet
PGD_LP,2.0,"[2.0767416954040527, 1.939704179763794, 2.104632616043091, 2.20283842086792, 2.130802869796753, 2.035871982574463, 1.562867522239685, 1.8525954484939575, 2.012611150741577, 2.156653642654419, 2.0658249855041504, 1.9909474849700928, 1.798093318939209, 1.9099167585372925, 1.9678925275802612, 2.039030075073242, 2.001106023788452, 2.013592004776001, 1.9508945941925049, 1.9968870878219604, 1.9853960275650024, 1.9988938570022583]",123,0.6354166865348816,0.0,1.0,"[0.5277777777777778, 0.5694444444444444, 0.8194444444444444, 0.625]","[0.0, 0.0, 0.0, 0.0]",0.9986942405420668,0.1382569273414634,0.1378983571662683,-0.000358570175195,0.99609375,-0.0811563631904801,-0.0825321441892268,-0.0013757809987466,"['Cz', 'CP4', 'FC2', 'CP3', 'C2']","['Cz', 'CP4', 'FC2', 'CP3', 'C2']",1,EEGNet
DeepFool_L2,,,123,0.6354166865348816,0.1006944477558136,0.8993055522441864,,,0.9742553642010164,0.1382569273414634,0.1355796541734531,-0.0026772731680102,0.95703125,-0.0811563631904801,-0.0943158791389013,-0.0131595159484211,"['Cz', 'CP4', 'FC2', 'CP3', 'C2']","['Cz', 'CP4', 'FC2', 'CP3', 'C2']",1,EEGNet
FGSM,0.25,"[0.2595927119255066, 0.24246302247047424, 0.26307907700538635, 0.27535480260849, 0.2663503587245941, 0.25448399782180786, 0.19535844027996063, 0.2315744310617447, 0.25157639384269714, 0.26958170533180237, 0.2582281231880188, 0.2488684356212616, 0.22476166486740112, 0.23873959481716156, 0.24598656594753265, 0.2548787593841553, 0.2501382529735565, 0.2516990005970001, 0.2438618242740631, 0.24961088597774506, 0.2481745034456253, 0.2498617321252823]",2024,0.6875,0.0034722222480922,0.9965277777519076,"[0.5694444444444444, 0.7638888888888888, 0.8333333333333334, 0.5833333333333334]","[0.0, 0.0, 0.013888888888888888, 0.0]",0.9262157679277244,0.1132338541271968,0.1087291344351565,-0.0045047196920402,0.8203125,-0.1348339295778824,-0.1920770965323308,-0.0572431669544483,"['CPz', 'FC1', 'P2', 'CP4', 'FC3']","['FC1', 'CPz', 'FC3', 'P2', 'P1']",1,EEGNet
FGSM,0.5,"[0.5191854238510132, 0.4849260449409485, 0.5261581540107727, 0.55070960521698, 0.5327007174491882, 0.5089679956436157, 0.39071688055992126, 0.4631488621234894, 0.5031527876853943, 0.5391634106636047, 0.5164562463760376, 0.4977368712425232, 0.44952332973480225, 0.4774791896343231, 0.4919731318950653, 0.5097575187683105, 0.500276505947113, 0.5033980011940002, 0.4877236485481262, 0.4992217719554901, 0.4963490068912506, 0.4997234642505646]",2024,0.6875,0.0,1.0,"[0.5694444444444444, 0.7638888888888888, 0.8333333333333334, 0.5833333333333334]","[0.0, 0.0, 0.0, 0.0]",0.9262157679277244,0.1132338541271968,0.1087291344351565,-0.0045047196920402,0.8203125,-0.1348339295778824,-0.1920770965323308,-0.0572431669544483,"['CPz', 'FC1', 'P2', 'CP4', 'FC3']","['FC1', 'CPz', 'FC3', 'P2', 'P1']",1,EEGNet
FGSM,1.0,"[1.0383708477020264, 0.969852089881897, 1.0523163080215454, 1.10141921043396, 1.0654014348983765, 1.0179359912872314, 0.7814337611198425, 0.9262977242469788, 1.0063055753707886, 1.0783268213272095, 1.0329124927520752, 0.9954737424850464, 0.8990466594696045, 0.9549583792686462, 0.9839462637901306, 1.019515037536621, 1.000553011894226, 1.0067960023880005, 0.9754472970962524, 0.9984435439109802, 0.9926980137825012, 0.9994469285011292]",2024,0.6875,0.0,1.0,"[0.5694444444444444, 0.7638888888888888, 0.8333333333333334, 0.5833333333333334]","[0.0, 0.0, 0.0, 0.0]",0.9262157679277244,0.1132338541271968,0.1087291344351565,-0.0045047196920402,0.8203125,-0.1348339295778824,-0.1920770965323308,-0.0572431669544483,"['CPz', 'FC1', 'P2', 'CP4', 'FC3']","['FC1', 'CPz', 'FC3', 'P2', 'P1']",1,EEGNet
FGSM,2.0,"[2.0767416954040527, 1.939704179763794, 2.104632616043091, 2.20283842086792, 2.130802869796753, 2.035871982574463, 1.562867522239685, 1.8525954484939575, 2.012611150741577, 2.156653642654419, 2.0658249855041504, 1.9909474849700928, 1.798093318939209, 1.9099167585372925, 1.9678925275802612, 2.039030075073242, 2.001106023788452, 2.013592004776001, 1.9508945941925049, 1.9968870878219604, 1.9853960275650024, 1.9988938570022583]",2024,0.6875,0.0,1.0,"[0.5694444444444444, 0.7638888888888888, 0.8333333333333334, 0.5833333333333334]","[0.0, 0.0, 0.0, 0.0]",0.9262157679277244,0.1132338541271968,0.1087291344351565,-0.0045047196920402,0.8203125,-0.1348339295778824,-0.1920770965323308,-0.0572431669544483,"['CPz', 'FC1', 'P2', 'CP4', 'FC3']","['FC1', 'CPz', 'FC3', 'P2', 'P1']",1,EEGNet
PGD,0.25,"[0.2595927119255066, 0.24246302247047424, 0.26307907700538635, 0.27535480260849, 0.2663503587245941, 0.25448399782180786, 0.19535844027996063, 0.2315744310617447, 0.25157639384269714, 0.26958170533180237, 0.2582281231880188, 0.2488684356212616, 0.22476166486740112, 0.23873959481716156, 0.24598656594753265, 0.2548787593841553, 0.2501382529735565, 0.2516990005970001, 0.2438618242740631, 0.24961088597774506, 0.2481745034456253, 0.2498617321252823]",2024,0.6875,0.0,1.0,"[0.5694444444444444, 0.7638888888888888, 0.8333333333333334, 0.5833333333333334]","[0.0, 0.0, 0.0, 0.0]",0.924980590062112,0.1132338541271968,0.1085287472064735,-0.0047051069207232,0.8046875,-0.1348339295778824,-0.1956385018415827,-0.0608045722637003,"['CPz', 'FC1', 'P2', 'CP4', 'FC3']","['FC1', 'CPz', 'FC3', 'P2', 'P1']",1,EEGNet
PGD,0.5,"[0.5191854238510132, 0.4849260449409485, 0.5261581540107727, 0.55070960521698, 0.5327007174491882, 0.5089679956436157, 0.39071688055992126, 0.4631488621234894, 0.5031527876853943, 0.5391634106636047, 0.5164562463760376, 0.4977368712425232, 0.44952332973480225, 0.4774791896343231, 0.4919731318950653, 0.5097575187683105, 0.500276505947113, 0.5033980011940002, 0.4877236485481262, 0.4992217719554901, 0.4963490068912506, 0.4997234642505646]",2024,0.6875,0.0,1.0,"[0.5694444444444444, 0.7638888888888888, 0.8333333333333334, 0.5833333333333334]","[0.0, 0.0, 0.0, 0.0]",0.924980590062112,0.1132338541271968,0.1085287472064735,-0.0047051069207232,0.8046875,-0.1348339295778824,-0.1956385018415827,-0.0608045722637003,"['CPz', 'FC1', 'P2', 'CP4', 'FC3']","['FC1', 'CPz', 'FC3', 'P2', 'P1']",1,EEGNet
PGD,1.0,"[1.0383708477020264, 0.969852089881897, 1.0523163080215454, 1.10141921043396, 1.0654014348983765, 1.0179359912872314, 0.7814337611198425, 0.9262977242469788, 1.0063055753707886, 1.0783268213272095, 1.0329124927520752, 0.9954737424850464, 0.8990466594696045, 0.9549583792686462, 0.9839462637901306, 1.019515037536621, 1.000553011894226, 1.0067960023880005, 0.9754472970962524, 0.9984435439109802, 0.9926980137825012, 0.9994469285011292]",2024,0.6875,0.0,1.0,"[0.5694444444444444, 0.7638888888888888, 0.8333333333333334, 0.5833333333333334]","[0.0, 0.0, 0.0, 0.0]",0.924980590062112,0.1132338541271968,0.1085287472064735,-0.0047051069207232,0.8046875,-0.1348339295778824,-0.1956385018415827,-0.0608045722637003,"['CPz', 'FC1', 'P2', 'CP4', 'FC3']","['FC1', 'CPz', 'FC3', 'P2', 'P1']",1,EEGNet
PGD,2.0,"[2.0767416954040527, 1.939704179763794, 2.104632616043091, 2.20283842086792, 2.130802869796753, 2.035871982574463, 1.562867522239685, 1.8525954484939575, 2.012611150741577, 2.156653642654419, 2.0658249855041504, 1.9909474849700928, 1.798093318939209, 1.9099167585372925, 1.9678925275802612, 2.039030075073242, 2.001106023788452, 2.013592004776001, 1.9508945941925049, 1.9968870878219604, 1.9853960275650024, 1.9988938570022583]",2024,0.6875,0.0,1.0,"[0.5694444444444444, 0.7638888888888888, 0.8333333333333334, 0.5833333333333334]","[0.0, 0.0, 0.0, 0.0]",0.924980590062112,0.1132338541271968,0.1085287472064735,-0.0047051069207232,0.8046875,-0.1348339295778824,-0.1956385018415827,-0.0608045722637003,"['CPz', 'FC1', 'P2', 'CP4', 'FC3']","['FC1', 'CPz', 'FC3', 'P2', 'P1']",1,EEGNet
FGSM_LP,0.25,"[0.2595927119255066, 0.24246302247047424, 0.26307907700538635, 0.27535480260849, 0.2663503587245941, 0.25448399782180786, 0.19535844027996063, 0.2315744310617447, 0.25157639384269714, 0.26958170533180237, 0.2582281231880188, 0.2488684356212616, 0.22476166486740112, 0.23873959481716156, 0.24598656594753265, 0.2548787593841553, 0.2501382529735565, 0.2516990005970001, 0.2438618242740631, 0.24961088597774506, 0.2481745034456253, 0.2498617321252823]",2024,0.6875,0.5451388955116272,0.4548611044883728,"[0.5694444444444444, 0.7638888888888888, 0.8333333333333334, 0.5833333333333334]","[0.4027777777777778, 0.625, 0.7083333333333334, 0.4444444444444444]",0.9982883963862224,0.1132338541271968,0.1131470169490615,-8.68371781352767e-05,0.99609375,-0.1348339295778824,-0.136878911035562,-0.0020449814576795,"['CPz', 'FC1', 'P2', 'CP4', 'FC3']","['CPz', 'FC1', 'P2', 'FC3', 'CP4']",1,EEGNet
FGSM_LP,0.5,"[0.5191854238510132, 0.4849260449409485, 0.5261581540107727, 0.55070960521698, 0.5327007174491882, 0.5089679956436157, 0.39071688055992126, 0.4631488621234894, 0.5031527876853943, 0.5391634106636047, 0.5164562463760376, 0.4977368712425232, 0.44952332973480225, 0.4774791896343231, 0.4919731318950653, 0.5097575187683105, 0.500276505947113, 0.5033980011940002, 0.4877236485481262, 0.4992217719554901, 0.4963490068912506, 0.4997234642505646]",2024,0.6875,0.2638888955116272,0.7361111044883728,"[0.5694444444444444, 0.7638888888888888, 0.8333333333333334, 0.5833333333333334]","[0.1111111111111111, 0.3611111111111111, 0.375, 0.20833333333333334]",0.9982883963862224,0.1132338541271968,0.1131470169490615,-8.68371781352767e-05,0.99609375,-0.1348339295778824,-0.136878911035562,-0.0020449814576795,"['CPz', 'FC1', 'P2', 'CP4', 'FC3']","['CPz', 'FC1', 'P2', 'FC3', 'CP4']",1,EEGNet
FGSM_LP,1.0,"[1.0383708477020264, 0.969852089881897, 1.0523163080215454, 1.10141921043396, 1.0654014348983765, 1.0179359912872314, 0.7814337611198425, 0.9262977242469788, 1.0063055753707886, 1.0783268213272095, 1.0329124927520752, 0.9954737424850464, 0.8990466594696045, 0.9549583792686462, 0.9839462637901306, 1.019515037536621, 1.000553011894226, 1.0067960023880005, 0.9754472970962524, 0.9984435439109802, 0.9926980137825012, 0.9994469285011292]",2024,0.6875,0.0,1.0,"[0.5694444444444444, 0.7638888888888888, 0.8333333333333334, 0.5833333333333334]","[0.0, 0.0, 0.0, 0.0]",0.9982883963862224,0.1132338541271968,0.1131470169490615,-8.68371781352767e-05,0.99609375,-0.1348339295778824,-0.136878911035562,-0.0020449814576795,"['CPz', 'FC1', 'P2', 'CP4', 'FC3']","['CPz', 'FC1', 'P2', 'FC3', 'CP4']",1,EEGNet
FGSM_LP,2.0,"[2.0767416954040527, 1.939704179763794, 2.104632616043091, 2.20283842086792, 2.130802869796753, 2.035871982574463, 1.562867522239685, 1.8525954484939575, 2.012611150741577, 2.156653642654419, 2.0658249855041504, 1.9909474849700928, 1.798093318939209, 1.9099167585372925, 1.9678925275802612, 2.039030075073242, 2.001106023788452, 2.013592004776001, 1.9508945941925049, 1.9968870878219604, 1.9853960275650024, 1.9988938570022583]",2024,0.6875,0.0,1.0,"[0.5694444444444444, 0.7638888888888888, 0.8333333333333334, 0.5833333333333334]","[0.0, 0.0, 0.0, 0.0]",0.9982883963862224,0.1132338541271968,0.1131470169490615,-8.68371781352767e-05,0.99609375,-0.1348339295778824,-0.136878911035562,-0.0020449814576795,"['CPz', 'FC1', 'P2', 'CP4', 'FC3']","['CPz', 'FC1', 'P2', 'FC3', 'CP4']",1,EEGNet
PGD_LP,0.25,"[0.2595927119255066, 0.24246302247047424, 0.26307907700538635, 0.27535480260849, 0.2663503587245941, 0.25448399782180786, 0.19535844027996063, 0.2315744310617447, 0.25157639384269714, 0.26958170533180237, 0.2582281231880188, 0.2488684356212616, 0.22476166486740112, 0.23873959481716156, 0.24598656594753265, 0.2548787593841553, 0.2501382529735565, 0.2516990005970001, 0.2438618242740631, 0.24961088597774506, 0.2481745034456253, 0.2498617321252823]",2024,0.6875,0.5868055820465088,0.4131944179534912,"[0.5694444444444444, 0.7638888888888888, 0.8333333333333334, 0.5833333333333334]","[0.4583333333333333, 0.6805555555555556, 0.7083333333333334, 0.5]",0.9983854460756636,0.1132338541271968,0.1130925119123695,-0.0001413422148272,0.99609375,-0.1348339295778824,-0.1375512988824284,-0.0027173693045459,"['CPz', 'FC1', 'P2', 'CP4', 'FC3']","['CPz', 'FC1', 'P2', 'FC3', 'CP4']",1,EEGNet
PGD_LP,0.5,"[0.5191854238510132, 0.4849260449409485, 0.5261581540107727, 0.55070960521698, 0.5327007174491882, 0.5089679956436157, 0.39071688055992126, 0.4631488621234894, 0.5031527876853943, 0.5391634106636047, 0.5164562463760376, 0.4977368712425232, 0.44952332973480225, 0.4774791896343231, 0.4919731318950653, 0.5097575187683105, 0.500276505947113, 0.5033980011940002, 0.4877236485481262, 0.4992217719554901, 0.4963490068912506, 0.4997234642505646]",2024,0.6875,0.3715277910232544,0.6284722089767456,"[0.5694444444444444, 0.7638888888888888, 0.8333333333333334, 0.5833333333333334]","[0.2777777777777778, 0.4166666666666667, 0.4305555555555556, 0.3611111111111111]",0.9983854460756636,0.1132338541271968,0.1130925119123695,-0.0001413422148272,0.99609375,-0.1348339295778824,-0.1375512988824284,-0.0027173693045459,"['CPz', 'FC1', 'P2', 'CP4', 'FC3']","['CPz', 'FC1', 'P2', 'FC3', 'CP4']",1,EEGNet
PGD_LP,1.0,"[1.0383708477020264, 0.969852089881897, 1.0523163080215454, 1.10141921043396, 1.0654014348983765, 1.0179359912872314, 0.7814337611198425, 0.9262977242469788, 1.0063055753707886, 1.0783268213272095, 1.0329124927520752, 0.9954737424850464, 0.8990466594696045, 0.9549583792686462, 0.9839462637901306, 1.019515037536621, 1.000553011894226, 1.0067960023880005, 0.9754472970962524, 0.9984435439109802, 0.9926980137825012, 0.9994469285011292]",2024,0.6875,0.020833333954215,0.979166666045785,"[0.5694444444444444, 0.7638888888888888, 0.8333333333333334, 0.5833333333333334]","[0.0, 0.013888888888888888, 0.0, 0.06944444444444445]",0.9983854460756636,0.1132338541271968,0.1130925119123695,-0.0001413422148272,0.99609375,-0.1348339295778824,-0.1375512988824284,-0.0027173693045459,"['CPz', 'FC1', 'P2', 'CP4', 'FC3']","['CPz', 'FC1', 'P2', 'FC3', 'CP4']",1,EEGNet
PGD_LP,2.0,"[2.0767416954040527, 1.939704179763794, 2.104632616043091, 2.20283842086792, 2.130802869796753, 2.035871982574463, 1.562867522239685, 1.8525954484939575, 2.012611150741577, 2.156653642654419, 2.0658249855041504, 1.9909474849700928, 1.798093318939209, 1.9099167585372925, 1.9678925275802612, 2.039030075073242, 2.001106023788452, 2.013592004776001, 1.9508945941925049, 1.9968870878219604, 1.9853960275650024, 1.9988938570022583]",2024,0.6875,0.0,1.0,"[0.5694444444444444, 0.7638888888888888, 0.8333333333333334, 0.5833333333333334]","[0.0, 0.0, 0.0, 0.0]",0.9983854460756636,0.1132338541271968,0.1130925119123695,-0.0001413422148272,0.99609375,-0.1348339295778824,-0.1375512988824284,-0.0027173693045459,"['CPz', 'FC1', 'P2', 'CP4', 'FC3']","['CPz', 'FC1', 'P2', 'FC3', 'CP4']",1,EEGNet
DeepFool_L2,,,2024,0.6875,0.1215277761220932,0.8784722238779068,,,0.954210191981931,0.1132338541271968,0.1108325296503309,-0.0024013244768659,0.87109375,-0.1348339295778824,-0.154472448905634,-0.0196385193277516,"['CPz', 'FC1', 'P2', 'CP4', 'FC3']","['CPz', 'FC1', 'P2', 'FC3', 'CP4']",1,EEGNet
FGSM,0.25,"[0.2595927119255066, 0.24246302247047424, 0.26307907700538635, 0.27535480260849, 0.2663503587245941, 0.25448399782180786, 0.19535844027996063, 0.2315744310617447, 0.25157639384269714, 0.26958170533180237, 0.2582281231880188, 0.2488684356212616, 0.22476166486740112, 0.23873959481716156, 0.24598656594753265, 0.2548787593841553, 0.2501382529735565, 0.2516990005970001, 0.2438618242740631, 0.24961088597774506, 0.2481745034456253, 0.2498617321252823]",31415,0.6527777910232544,0.0902777761220932,0.9097222238779068,"[0.3611111111111111, 0.6666666666666666, 0.875, 0.7083333333333334]","[0.027777777777777776, 0.0, 0.3333333333333333, 0.0]",0.8572487295313382,0.0909837083301308,0.0977463187595412,0.0067626104294103,0.8828125,-0.354352876586115,-0.3534564020586097,0.0008964745275052,"['C1', 'CP3', 'C6', 'CP4', 'P1']","['C1', 'CP3', 'C6', 'CP4', 'P1']",1,EEGNet
FGSM,0.5,"[0.5191854238510132, 0.4849260449409485, 0.5261581540107727, 0.55070960521698, 0.5327007174491882, 0.5089679956436157, 0.39071688055992126, 0.4631488621234894, 0.5031527876853943, 0.5391634106636047, 0.5164562463760376, 0.4977368712425232, 0.44952332973480225, 0.4774791896343231, 0.4919731318950653, 0.5097575187683105, 0.500276505947113, 0.5033980011940002, 0.4877236485481262, 0.4992217719554901, 0.4963490068912506, 0.4997234642505646]",31415,0.6527777910232544,0.0,1.0,"[0.3611111111111111, 0.6666666666666666, 0.875, 0.7083333333333334]","[0.0, 0.0, 0.0, 0.0]",0.8572487295313382,0.0909837083301308,0.0977463187595412,0.0067626104294103,0.8828125,-0.354352876586115,-0.3534564020586097,0.0008964745275052,"['C1', 'CP3', 'C6', 'CP4', 'P1']","['C1', 'CP3', 'C6', 'CP4', 'P1']",1,EEGNet
FGSM,1.0,"[1.0383708477020264, 0.969852089881897, 1.0523163080215454, 1.10141921043396, 1.0654014348983765, 1.0179359912872314, 0.7814337611198425, 0.9262977242469788, 1.0063055753707886, 1.0783268213272095, 1.0329124927520752, 0.9954737424850464, 0.8990466594696045, 0.9549583792686462, 0.9839462637901306, 1.019515037536621, 1.000553011894226, 1.0067960023880005, 0.9754472970962524, 0.9984435439109802, 0.9926980137825012, 0.9994469285011292]",31415,0.6527777910232544,0.0,1.0,"[0.3611111111111111, 0.6666666666666666, 0.875, 0.7083333333333334]","[0.0, 0.0, 0.0, 0.0]",0.8572487295313382,0.0909837083301308,0.0977463187595412,0.0067626104294103,0.8828125,-0.354352876586115,-0.3534564020586097,0.0008964745275052,"['C1', 'CP3', 'C6', 'CP4', 'P1']","['C1', 'CP3', 'C6', 'CP4', 'P1']",1,EEGNet
FGSM,2.0,"[2.0767416954040527, 1.939704179763794, 2.104632616043091, 2.20283842086792, 2.130802869796753, 2.035871982574463, 1.562867522239685, 1.8525954484939575, 2.012611150741577, 2.156653642654419, 2.0658249855041504, 1.9909474849700928, 1.798093318939209, 1.9099167585372925, 1.9678925275802612, 2.039030075073242, 2.001106023788452, 2.013592004776001, 1.9508945941925049, 1.9968870878219604, 1.9853960275650024, 1.9988938570022583]",31415,0.6527777910232544,0.0,1.0,"[0.3611111111111111, 0.6666666666666666, 0.875, 0.7083333333333334]","[0.0, 0.0, 0.0, 0.0]",0.8572487295313382,0.0909837083301308,0.0977463187595412,0.0067626104294103,0.8828125,-0.354352876586115,-0.3534564020586097,0.0008964745275052,"['C1', 'CP3', 'C6', 'CP4', 'P1']","['C1', 'CP3', 'C6', 'CP4', 'P1']",1,EEGNet
PGD,0.25,"[0.2595927119255066, 0.24246302247047424, 0.26307907700538635, 0.27535480260849, 0.2663503587245941, 0.25448399782180786, 0.19535844027996063, 0.2315744310617447, 0.25157639384269714, 0.26958170533180237, 0.2582281231880188, 0.2488684356212616, 0.22476166486740112, 0.23873959481716156, 0.24598656594753265, 0.2548787593841553, 0.2501382529735565, 0.2516990005970001, 0.2438618242740631, 0.24961088597774506, 0.2481745034456253, 0.2498617321252823]",31415,0.6527777910232544,0.020833333954215,0.979166666045785,"[0.3611111111111111, 0.6666666666666666, 0.875, 0.7083333333333334]","[0.0, 0.0, 0.08333333333333333, 0.0]",0.8524756493506493,0.0909837083301308,0.0988605971062607,0.0078768887761298,0.875,-0.354352876586115,-0.3512863790616994,0.0030664975244156,"['C1', 'CP3', 'C6', 'CP4', 'P1']","['C1', 'CP3', 'CP4', 'C6', 'P1']",1,EEGNet
PGD,0.5,"[0.5191854238510132, 0.4849260449409485, 0.5261581540107727, 0.55070960521698, 0.5327007174491882, 0.5089679956436157, 0.39071688055992126, 0.4631488621234894, 0.5031527876853943, 0.5391634106636047, 0.5164562463760376, 0.4977368712425232, 0.44952332973480225, 0.4774791896343231, 0.4919731318950653, 0.5097575187683105, 0.500276505947113, 0.5033980011940002, 0.4877236485481262, 0.4992217719554901, 0.4963490068912506, 0.4997234642505646]",31415,0.6527777910232544,0.0,1.0,"[0.3611111111111111, 0.6666666666666666, 0.875, 0.7083333333333334]","[0.0, 0.0, 0.0, 0.0]",0.8524756493506493,0.0909837083301308,0.0988605971062607,0.0078768887761298,0.875,-0.354352876586115,-0.3512863790616994,0.0030664975244156,"['C1', 'CP3', 'C6', 'CP4', 'P1']","['C1', 'CP3', 'CP4', 'C6', 'P1']",1,EEGNet
PGD,1.0,"[1.0383708477020264, 0.969852089881897, 1.0523163080215454, 1.10141921043396, 1.0654014348983765, 1.0179359912872314, 0.7814337611198425, 0.9262977242469788, 1.0063055753707886, 1.0783268213272095, 1.0329124927520752, 0.9954737424850464, 0.8990466594696045, 0.9549583792686462, 0.9839462637901306, 1.019515037536621, 1.000553011894226, 1.0067960023880005, 0.9754472970962524, 0.9984435439109802, 0.9926980137825012, 0.9994469285011292]",31415,0.6527777910232544,0.0,1.0,"[0.3611111111111111, 0.6666666666666666, 0.875, 0.7083333333333334]","[0.0, 0.0, 0.0, 0.0]",0.8524756493506493,0.0909837083301308,0.0988605971062607,0.0078768887761298,0.875,-0.354352876586115,-0.3512863790616994,0.0030664975244156,"['C1', 'CP3', 'C6', 'CP4', 'P1']","['C1', 'CP3', 'CP4', 'C6', 'P1']",1,EEGNet
PGD,2.0,"[2.0767416954040527, 1.939704179763794, 2.104632616043091, 2.20283842086792, 2.130802869796753, 2.035871982574463, 1.562867522239685, 1.8525954484939575, 2.012611150741577, 2.156653642654419, 2.0658249855041504, 1.9909474849700928, 1.798093318939209, 1.9099167585372925, 1.9678925275802612, 2.039030075073242, 2.001106023788452, 2.013592004776001, 1.9508945941925049, 1.9968870878219604, 1.9853960275650024, 1.9988938570022583]",31415,0.6527777910232544,0.0,1.0,"[0.3611111111111111, 0.6666666666666666, 0.875, 0.7083333333333334]","[0.0, 0.0, 0.0, 0.0]",0.8524756493506493,0.0909837083301308,0.0988605971062607,0.0078768887761298,0.875,-0.354352876586115,-0.3512863790616994,0.0030664975244156,"['C1', 'CP3', 'C6', 'CP4', 'P1']","['C1', 'CP3', 'CP4', 'C6', 'P1']",1,EEGNet
FGSM_LP,0.25,"[0.2595927119255066, 0.24246302247047424, 0.26307907700538635, 0.27535480260849, 0.2663503587245941, 0.25448399782180786, 0.19535844027996063, 0.2315744310617447, 0.25157639384269714, 0.26958170533180237, 0.2582281231880188, 0.2488684356212616, 0.22476166486740112, 0.23873959481716156, 0.24598656594753265, 0.2548787593841553, 0.2501382529735565, 0.2516990005970001, 0.2438618242740631, 0.24961088597774506, 0.2481745034456253, 0.2498617321252823]",31415,0.6527777910232544,0.5034722089767456,0.4965277910232544,"[0.3611111111111111, 0.6666666666666666, 0.875, 0.7083333333333334]","[0.25, 0.5138888888888888, 0.7777777777777778, 0.4722222222222222]",0.9955798277809148,0.0909837083301308,0.0913963762210366,0.0004126678909057,0.9921875,-0.354352876586115,-0.3544866087140327,-0.0001337321279176,"['C1', 'CP3', 'C6', 'CP4', 'P1']","['C1', 'CP3', 'CP4', 'C6', 'P1']",1,EEGNet
FGSM_LP,0.5,"[0.5191854238510132, 0.4849260449409485, 0.5261581540107727, 0.55070960521698, 0.5327007174491882, 0.5089679956436157, 0.39071688055992126, 0.4631488621234894, 0.5031527876853943, 0.5391634106636047, 0.5164562463760376, 0.4977368712425232, 0.44952332973480225, 0.4774791896343231, 0.4919731318950653, 0.5097575187683105, 0.500276505947113, 0.5033980011940002, 0.4877236485481262, 0.4992217719554901, 0.4963490068912506, 0.4997234642505646]",31415,0.6527777910232544,0.125,0.875,"[0.3611111111111111, 0.6666666666666666, 0.875, 0.7083333333333334]","[0.027777777777777776, 0.08333333333333333, 0.19444444444444445, 0.19444444444444445]",0.9955798277809148,0.0909837083301308,0.0913963762210366,0.0004126678909057,0.9921875,-0.354352876586115,-0.3544866087140327,-0.0001337321279176,"['C1', 'CP3', 'C6', 'CP4', 'P1']","['C1', 'CP3', 'CP4', 'C6', 'P1']",1,EEGNet
FGSM_LP,1.0,"[1.0383708477020264, 0.969852089881897, 1.0523163080215454, 1.10141921043396, 1.0654014348983765, 1.0179359912872314, 0.7814337611198425, 0.9262977242469788, 1.0063055753707886, 1.0783268213272095, 1.0329124927520752, 0.9954737424850464, 0.8990466594696045, 0.9549583792686462, 0.9839462637901306, 1.019515037536621, 1.000553011894226, 1.0067960023880005, 0.9754472970962524, 0.9984435439109802, 0.9926980137825012, 0.9994469285011292]",31415,0.6527777910232544,0.0104166669771075,0.9895833330228924,"[0.3611111111111111, 0.6666666666666666, 0.875, 0.7083333333333334]","[0.0, 0.0, 0.0, 0.041666666666666664]",0.9955798277809148,0.0909837083301308,0.0913963762210366,0.0004126678909057,0.9921875,-0.354352876586115,-0.3544866087140327,-0.0001337321279176,"['C1', 'CP3', 'C6', 'CP4', 'P1']","['C1', 'CP3', 'CP4', 'C6', 'P1']",1,EEGNet
FGSM_LP,2.0,"[2.0767416954040527, 1.939704179763794, 2.104632616043091, 2.20283842086792, 2.130802869796753, 2.035871982574463, 1.562867522239685, 1.8525954484939575, 2.012611150741577, 2.156653642654419, 2.0658249855041504, 1.9909474849700928, 1.798093318939209, 1.9099167585372925, 1.9678925275802612, 2.039030075073242, 2.001106023788452, 2.013592004776001, 1.9508945941925049, 1.9968870878219604, 1.9853960275650024, 1.9988938570022583]",31415,0.6527777910232544,0.0,1.0,"[0.3611111111111111, 0.6666666666666666, 0.875, 0.7083333333333334]","[0.0, 0.0, 0.0, 0.0]",0.9955798277809148,0.0909837083301308,0.0913963762210366,0.0004126678909057,0.9921875,-0.354352876586115,-0.3544866087140327,-0.0001337321279176,"['C1', 'CP3', 'C6', 'CP4', 'P1']","['C1', 'CP3', 'CP4', 'C6', 'P1']",1,EEGNet
PGD_LP,0.25,"[0.2595927119255066, 0.24246302247047424, 0.26307907700538635, 0.27535480260849, 0.2663503587245941, 0.25448399782180786, 0.19535844027996063, 0.2315744310617447, 0.25157639384269714, 0.26958170533180237, 0.2582281231880188, 0.2488684356212616, 0.22476166486740112, 0.23873959481716156, 0.24598656594753265, 0.2548787593841553, 0.2501382529735565, 0.2516990005970001, 0.2438618242740631, 0.24961088597774506, 0.2481745034456253, 0.2498617321252823]",31415,0.6527777910232544,0.5763888955116272,0.4236111044883728,"[0.3611111111111111, 0.6666666666666666, 0.875, 0.7083333333333334]","[0.3194444444444444, 0.5833333333333334, 0.8472222222222222, 0.5555555555555556]",0.995800395256917,0.0909837083301308,0.0916731705704387,0.0006894622403078,0.99609375,-0.354352876586115,-0.3548976589728863,-0.0005447823867712,"['C1', 'CP3', 'C6', 'CP4', 'P1']","['C1', 'CP3', 'C6', 'CP4', 'P1']",1,EEGNet
PGD_LP,0.5,"[0.5191854238510132, 0.4849260449409485, 0.5261581540107727, 0.55070960521698, 0.5327007174491882, 0.5089679956436157, 0.39071688055992126, 0.4631488621234894, 0.5031527876853943, 0.5391634106636047, 0.5164562463760376, 0.4977368712425232, 0.44952332973480225, 0.4774791896343231, 0.4919731318950653, 0.5097575187683105, 0.500276505947113, 0.5033980011940002, 0.4877236485481262, 0.4992217719554901, 0.4963490068912506, 0.4997234642505646]",31415,0.6527777910232544,0.3194444477558136,0.6805555522441864,"[0.3611111111111111, 0.6666666666666666, 0.875, 0.7083333333333334]","[0.20833333333333334, 0.2638888888888889, 0.4583333333333333, 0.3472222222222222]",0.995800395256917,0.0909837083301308,0.0916731705704387,0.0006894622403078,0.99609375,-0.354352876586115,-0.3548976589728863,-0.0005447823867712,"['C1', 'CP3', 'C6', 'CP4', 'P1']","['C1', 'CP3', 'C6', 'CP4', 'P1']",1,EEGNet
PGD_LP,1.0,"[1.0383708477020264, 0.969852089881897, 1.0523163080215454, 1.10141921043396, 1.0654014348983765, 1.0179359912872314, 0.7814337611198425, 0.9262977242469788, 1.0063055753707886, 1.0783268213272095, 1.0329124927520752, 0.9954737424850464, 0.8990466594696045, 0.9549583792686462, 0.9839462637901306, 1.019515037536621, 1.000553011894226, 1.0067960023880005, 0.9754472970962524, 0.9984435439109802, 0.9926980137825012, 0.9994469285011292]",31415,0.6527777910232544,0.020833333954215,0.979166666045785,"[0.3611111111111111, 0.6666666666666666, 0.875, 0.7083333333333334]","[0.013888888888888888, 0.013888888888888888, 0.0, 0.05555555555555555]",0.995800395256917,0.0909837083301308,0.0916731705704387,0.0006894622403078,0.99609375,-0.354352876586115,-0.3548976589728863,-0.0005447823867712,"['C1', 'CP3', 'C6', 'CP4', 'P1']","['C1', 'CP3', 'C6', 'CP4', 'P1']",1,EEGNet
PGD_LP,2.0,"[2.0767416954040527, 1.939704179763794, 2.104632616043091, 2.20283842086792, 2.130802869796753, 2.035871982574463, 1.562867522239685, 1.8525954484939575, 2.012611150741577, 2.156653642654419, 2.0658249855041504, 1.9909474849700928, 1.798093318939209, 1.9099167585372925, 1.9678925275802612, 2.039030075073242, 2.001106023788452, 2.013592004776001, 1.9508945941925049, 1.9968870878219604, 1.9853960275650024, 1.9988938570022583]",31415,0.6527777910232544,0.0,1.0,"[0.3611111111111111, 0.6666666666666666, 0.875, 0.7083333333333334]","[0.0, 0.0, 0.0, 0.0]",0.995800395256917,0.0909837083301308,0.0916731705704387,0.0006894622403078,0.99609375,-0.354352876586115,-0.3548976589728863,-0.0005447823867712,"['C1', 'CP3', 'C6', 'CP4', 'P1']","['C1', 'CP3', 'C6', 'CP4', 'P1']",1,EEGNet
DeepFool_L2,,,31415,0.6527777910232544,0.0763888880610466,0.9236111119389534,,,0.9106084133258048,0.0909837083301308,0.0959570467351132,0.0049733384049823,0.90625,-0.354352876586115,-0.3565147246607509,-0.0021618480746358,"['C1', 'CP3', 'C6', 'CP4', 'P1']","['C1', 'CP3', 'C6', 'CP4', 'P1']",1,EEGNet
FGSM,0.25,"[0.2595927119255066, 0.24246302247047424, 0.26307907700538635, 0.27535480260849, 0.2663503587245941, 0.25448399782180786, 0.19535844027996063, 0.2315744310617447, 0.25157639384269714, 0.26958170533180237, 0.2582281231880188, 0.2488684356212616, 0.22476166486740112, 0.23873959481716156, 0.24598656594753265, 0.2548787593841553, 0.2501382529735565, 0.2516990005970001, 0.2438618242740631, 0.24961088597774506, 0.2481745034456253, 0.2498617321252823]",999,0.6423611044883728,0.0625,0.9375,"[0.4444444444444444, 0.75, 0.7777777777777778, 0.5972222222222222]","[0.0, 0.0, 0.25, 0.0]",0.9335827216262,0.1368507353491499,0.1335913120063062,-0.0032594233428436,0.71875,-0.0003241002369945,0.0773075025174039,0.0776316027543985,"['CP4', 'P2', 'CP2', 'POz', 'CPz']","['P2', 'CP4', 'CP2', 'POz', 'CPz']",1,EEGNet
FGSM,0.5,"[0.5191854238510132, 0.4849260449409485, 0.5261581540107727, 0.55070960521698, 0.5327007174491882, 0.5089679956436157, 0.39071688055992126, 0.4631488621234894, 0.5031527876853943, 0.5391634106636047, 0.5164562463760376, 0.4977368712425232, 0.44952332973480225, 0.4774791896343231, 0.4919731318950653, 0.5097575187683105, 0.500276505947113, 0.5033980011940002, 0.4877236485481262, 0.4992217719554901, 0.4963490068912506, 0.4997234642505646]",999,0.6423611044883728,0.0034722222480922,0.9965277777519076,"[0.4444444444444444, 0.75, 0.7777777777777778, 0.5972222222222222]","[0.0, 0.0, 0.013888888888888888, 0.0]",0.9335827216262,0.1368507353491499,0.1335913120063062,-0.0032594233428436,0.71875,-0.0003241002369945,0.0773075025174039,0.0776316027543985,"['CP4', 'P2', 'CP2', 'POz', 'CPz']","['P2', 'CP4', 'CP2', 'POz', 'CPz']",1,EEGNet
FGSM,1.0,"[1.0383708477020264, 0.969852089881897, 1.0523163080215454, 1.10141921043396, 1.0654014348983765, 1.0179359912872314, 0.7814337611198425, 0.9262977242469788, 1.0063055753707886, 1.0783268213272095, 1.0329124927520752, 0.9954737424850464, 0.8990466594696045, 0.9549583792686462, 0.9839462637901306, 1.019515037536621, 1.000553011894226, 1.0067960023880005, 0.9754472970962524, 0.9984435439109802, 0.9926980137825012, 0.9994469285011292]",999,0.6423611044883728,0.0,1.0,"[0.4444444444444444, 0.75, 0.7777777777777778, 0.5972222222222222]","[0.0, 0.0, 0.0, 0.0]",0.9335827216262,0.1368507353491499,0.1335913120063062,-0.0032594233428436,0.71875,-0.0003241002369945,0.0773075025174039,0.0776316027543985,"['CP4', 'P2', 'CP2', 'POz', 'CPz']","['P2', 'CP4', 'CP2', 'POz', 'CPz']",1,EEGNet
FGSM,2.0,"[2.0767416954040527, 1.939704179763794, 2.104632616043091, 2.20283842086792, 2.130802869796753, 2.035871982574463, 1.562867522239685, 1.8525954484939575, 2.012611150741577, 2.156653642654419, 2.0658249855041504, 1.9909474849700928, 1.798093318939209, 1.9099167585372925, 1.9678925275802612, 2.039030075073242, 2.001106023788452, 2.013592004776001, 1.9508945941925049, 1.9968870878219604, 1.9853960275650024, 1.9988938570022583]",999,0.6423611044883728,0.0,1.0,"[0.4444444444444444, 0.75, 0.7777777777777778, 0.5972222222222222]","[0.0, 0.0, 0.0, 0.0]",0.9335827216262,0.1368507353491499,0.1335913120063062,-0.0032594233428436,0.71875,-0.0003241002369945,0.0773075025174039,0.0776316027543985,"['CP4', 'P2', 'CP2', 'POz', 'CPz']","['P2', 'CP4', 'CP2', 'POz', 'CPz']",1,EEGNet
PGD,0.25,"[0.2595927119255066, 0.24246302247047424, 0.26307907700538635, 0.27535480260849, 0.2663503587245941, 0.25448399782180786, 0.19535844027996063, 0.2315744310617447, 0.25157639384269714, 0.26958170533180237, 0.2582281231880188, 0.2488684356212616, 0.22476166486740112, 0.23873959481716156, 0.24598656594753265, 0.2548787593841553, 0.2501382529735565, 0.2516990005970001, 0.2438618242740631, 0.24961088597774506, 0.2481745034456253, 0.2498617321252823]",999,0.6423611044883728,0.0104166669771075,0.9895833330228924,"[0.4444444444444444, 0.75, 0.7777777777777778, 0.5972222222222222]","[0.0, 0.0, 0.041666666666666664, 0.0]",0.93163290513834,0.1368507353491499,0.1332379474115878,-0.003612787937562,0.71484375,-0.0003241002369945,0.0782780245846076,0.0786021248216022,"['CP4', 'P2', 'CP2', 'POz', 'CPz']","['P2', 'CP4', 'CP2', 'POz', 'CPz']",1,EEGNet
PGD,0.5,"[0.5191854238510132, 0.4849260449409485, 0.5261581540107727, 0.55070960521698, 0.5327007174491882, 0.5089679956436157, 0.39071688055992126, 0.4631488621234894, 0.5031527876853943, 0.5391634106636047, 0.5164562463760376, 0.4977368712425232, 0.44952332973480225, 0.4774791896343231, 0.4919731318950653, 0.5097575187683105, 0.500276505947113, 0.5033980011940002, 0.4877236485481262, 0.4992217719554901, 0.4963490068912506, 0.4997234642505646]",999,0.6423611044883728,0.0,1.0,"[0.4444444444444444, 0.75, 0.7777777777777778, 0.5972222222222222]","[0.0, 0.0, 0.0, 0.0]",0.93163290513834,0.1368507353491499,0.1332379474115878,-0.003612787937562,0.71484375,-0.0003241002369945,0.0782780245846076,0.0786021248216022,"['CP4', 'P2', 'CP2', 'POz', 'CPz']","['P2', 'CP4', 'CP2', 'POz', 'CPz']",1,EEGNet
PGD,1.0,"[1.0383708477020264, 0.969852089881897, 1.0523163080215454, 1.10141921043396, 1.0654014348983765, 1.0179359912872314, 0.7814337611198425, 0.9262977242469788, 1.0063055753707886, 1.0783268213272095, 1.0329124927520752, 0.9954737424850464, 0.8990466594696045, 0.9549583792686462, 0.9839462637901306, 1.019515037536621, 1.000553011894226, 1.0067960023880005, 0.9754472970962524, 0.9984435439109802, 0.9926980137825012, 0.9994469285011292]",999,0.6423611044883728,0.0,1.0,"[0.4444444444444444, 0.75, 0.7777777777777778, 0.5972222222222222]","[0.0, 0.0, 0.0, 0.0]",0.93163290513834,0.1368507353491499,0.1332379474115878,-0.003612787937562,0.71484375,-0.0003241002369945,0.0782780245846076,0.0786021248216022,"['CP4', 'P2', 'CP2', 'POz', 'CPz']","['P2', 'CP4', 'CP2', 'POz', 'CPz']",1,EEGNet
PGD,2.0,"[2.0767416954040527, 1.939704179763794, 2.104632616043091, 2.20283842086792, 2.130802869796753, 2.035871982574463, 1.562867522239685, 1.8525954484939575, 2.012611150741577, 2.156653642654419, 2.0658249855041504, 1.9909474849700928, 1.798093318939209, 1.9099167585372925, 1.9678925275802612, 2.039030075073242, 2.001106023788452, 2.013592004776001, 1.9508945941925049, 1.9968870878219604, 1.9853960275650024, 1.9988938570022583]",999,0.6423611044883728,0.0,1.0,"[0.4444444444444444, 0.75, 0.7777777777777778, 0.5972222222222222]","[0.0, 0.0, 0.0, 0.0]",0.93163290513834,0.1368507353491499,0.1332379474115878,-0.003612787937562,0.71484375,-0.0003241002369945,0.0782780245846076,0.0786021248216022,"['CP4', 'P2', 'CP2', 'POz', 'CPz']","['P2', 'CP4', 'CP2', 'POz', 'CPz']",1,EEGNet
FGSM_LP,0.25,"[0.2595927119255066, 0.24246302247047424, 0.26307907700538635, 0.27535480260849, 0.2663503587245941, 0.25448399782180786, 0.19535844027996063, 0.2315744310617447, 0.25157639384269714, 0.26958170533180237, 0.2582281231880188, 0.2488684356212616, 0.22476166486740112, 0.23873959481716156, 0.24598656594753265, 0.2548787593841553, 0.2501382529735565, 0.2516990005970001, 0.2438618242740631, 0.24961088597774506, 0.2481745034456253, 0.2498617321252823]",999,0.6423611044883728,0.4930555522441864,0.5069444477558136,"[0.4444444444444444, 0.75, 0.7777777777777778, 0.5972222222222222]","[0.2916666666666667, 0.5416666666666666, 0.6388888888888888, 0.5]",0.9983060417843028,0.1368507353491499,0.1366223959304611,-0.0002283394186887,0.984375,-0.0003241002369945,0.0049830504423997,0.0053071506793942,"['CP4', 'P2', 'CP2', 'POz', 'CPz']","['CP4', 'P2', 'CP2', 'POz', 'CPz']",1,EEGNet
FGSM_LP,0.5,"[0.5191854238510132, 0.4849260449409485, 0.5261581540107727, 0.55070960521698, 0.5327007174491882, 0.5089679956436157, 0.39071688055992126, 0.4631488621234894, 0.5031527876853943, 0.5391634106636047, 0.5164562463760376, 0.4977368712425232, 0.44952332973480225, 0.4774791896343231, 0.4919731318950653, 0.5097575187683105, 0.500276505947113, 0.5033980011940002, 0.4877236485481262, 0.4992217719554901, 0.4963490068912506, 0.4997234642505646]",999,0.6423611044883728,0.1805555522441864,0.8194444477558136,"[0.4444444444444444, 0.75, 0.7777777777777778, 0.5972222222222222]","[0.08333333333333333, 0.1388888888888889, 0.3194444444444444, 0.18055555555555555]",0.9983060417843028,0.1368507353491499,0.1366223959304611,-0.0002283394186887,0.984375,-0.0003241002369945,0.0049830504423997,0.0053071506793942,"['CP4', 'P2', 'CP2', 'POz', 'CPz']","['CP4', 'P2', 'CP2', 'POz', 'CPz']",1,EEGNet
FGSM_LP,1.0,"[1.0383708477020264, 0.969852089881897, 1.0523163080215454, 1.10141921043396, 1.0654014348983765, 1.0179359912872314, 0.7814337611198425, 0.9262977242469788, 1.0063055753707886, 1.0783268213272095, 1.0329124927520752, 0.9954737424850464, 0.8990466594696045, 0.9549583792686462, 0.9839462637901306, 1.019515037536621, 1.000553011894226, 1.0067960023880005, 0.9754472970962524, 0.9984435439109802, 0.9926980137825012, 0.9994469285011292]",999,0.6423611044883728,0.0069444444961845,0.9930555555038154,"[0.4444444444444444, 0.75, 0.7777777777777778, 0.5972222222222222]","[0.0, 0.0, 0.027777777777777776, 0.0]",0.9983060417843028,0.1368507353491499,0.1366223959304611,-0.0002283394186887,0.984375,-0.0003241002369945,0.0049830504423997,0.0053071506793942,"['CP4', 'P2', 'CP2', 'POz', 'CPz']","['CP4', 'P2', 'CP2', 'POz', 'CPz']",1,EEGNet
FGSM_LP,2.0,"[2.0767416954040527, 1.939704179763794, 2.104632616043091, 2.20283842086792, 2.130802869796753, 2.035871982574463, 1.562867522239685, 1.8525954484939575, 2.012611150741577, 2.156653642654419, 2.0658249855041504, 1.9909474849700928, 1.798093318939209, 1.9099167585372925, 1.9678925275802612, 2.039030075073242, 2.001106023788452, 2.013592004776001, 1.9508945941925049, 1.9968870878219604, 1.9853960275650024, 1.9988938570022583]",999,0.6423611044883728,0.0,1.0,"[0.4444444444444444, 0.75, 0.7777777777777778, 0.5972222222222222]","[0.0, 0.0, 0.0, 0.0]",0.9983060417843028,0.1368507353491499,0.1366223959304611,-0.0002283394186887,0.984375,-0.0003241002369945,0.0049830504423997,0.0053071506793942,"['CP4', 'P2', 'CP2', 'POz', 'CPz']","['CP4', 'P2', 'CP2', 'POz', 'CPz']",1,EEGNet
PGD_LP,0.25,"[0.2595927119255066, 0.24246302247047424, 0.26307907700538635, 0.27535480260849, 0.2663503587245941, 0.25448399782180786, 0.19535844027996063, 0.2315744310617447, 0.25157639384269714, 0.26958170533180237, 0.2582281231880188, 0.2488684356212616, 0.22476166486740112, 0.23873959481716156, 0.24598656594753265, 0.2548787593841553, 0.2501382529735565, 0.2516990005970001, 0.2438618242740631, 0.24961088597774506, 0.2481745034456253, 0.2498617321252823]",999,0.6423611044883728,0.5520833134651184,0.4479166865348816,"[0.4444444444444444, 0.75, 0.7777777777777778, 0.5972222222222222]","[0.3611111111111111, 0.5833333333333334, 0.7083333333333334, 0.5555555555555556]",0.9981560559006212,0.1368507353491499,0.1365661791672233,-0.0002845561819265,0.984375,-0.0003241002369945,0.0051763021458778,0.0055004023828724,"['CP4', 'P2', 'CP2', 'POz', 'CPz']","['CP4', 'P2', 'CP2', 'POz', 'CPz']",1,EEGNet
PGD_LP,0.5,"[0.5191854238510132, 0.4849260449409485, 0.5261581540107727, 0.55070960521698, 0.5327007174491882, 0.5089679956436157, 0.39071688055992126, 0.4631488621234894, 0.5031527876853943, 0.5391634106636047, 0.5164562463760376, 0.4977368712425232, 0.44952332973480225, 0.4774791896343231, 0.4919731318950653, 0.5097575187683105, 0.500276505947113, 0.5033980011940002, 0.4877236485481262, 0.4992217719554901, 0.4963490068912506, 0.4997234642505646]",999,0.6423611044883728,0.2986111044883728,0.7013888955116272,"[0.4444444444444444, 0.75, 0.7777777777777778, 0.5972222222222222]","[0.25, 0.19444444444444445, 0.4305555555555556, 0.3194444444444444]",0.9981560559006212,0.1368507353491499,0.1365661791672233,-0.0002845561819265,0.984375,-0.0003241002369945,0.0051763021458778,0.0055004023828724,"['CP4', 'P2', 'CP2', 'POz', 'CPz']","['CP4', 'P2', 'CP2', 'POz', 'CPz']",1,EEGNet
PGD_LP,1.0,"[1.0383708477020264, 0.969852089881897, 1.0523163080215454, 1.10141921043396, 1.0654014348983765, 1.0179359912872314, 0.7814337611198425, 0.9262977242469788, 1.0063055753707886, 1.0783268213272095, 1.0329124927520752, 0.9954737424850464, 0.8990466594696045, 0.9549583792686462, 0.9839462637901306, 1.019515037536621, 1.000553011894226, 1.0067960023880005, 0.9754472970962524, 0.9984435439109802, 0.9926980137825012, 0.9994469285011292]",999,0.6423611044883728,0.020833333954215,0.979166666045785,"[0.4444444444444444, 0.75, 0.7777777777777778, 0.5972222222222222]","[0.0, 0.0, 0.06944444444444445, 0.013888888888888888]",0.9981560559006212,0.1368507353491499,0.1365661791672233,-0.0002845561819265,0.984375,-0.0003241002369945,0.0051763021458778,0.0055004023828724,"['CP4', 'P2', 'CP2', 'POz', 'CPz']","['CP4', 'P2', 'CP2', 'POz', 'CPz']",1,EEGNet
PGD_LP,2.0,"[2.0767416954040527, 1.939704179763794, 2.104632616043091, 2.20283842086792, 2.130802869796753, 2.035871982574463, 1.562867522239685, 1.8525954484939575, 2.012611150741577, 2.156653642654419, 2.0658249855041504, 1.9909474849700928, 1.798093318939209, 1.9099167585372925, 1.9678925275802612, 2.039030075073242, 2.001106023788452, 2.013592004776001, 1.9508945941925049, 1.9968870878219604, 1.9853960275650024, 1.9988938570022583]",999,0.6423611044883728,0.0,1.0,"[0.4444444444444444, 0.75, 0.7777777777777778, 0.5972222222222222]","[0.0, 0.0, 0.0, 0.0]",0.9981560559006212,0.1368507353491499,0.1365661791672233,-0.0002845561819265,0.984375,-0.0003241002369945,0.0051763021458778,0.0055004023828724,"['CP4', 'P2', 'CP2', 'POz', 'CPz']","['CP4', 'P2', 'CP2', 'POz', 'CPz']",1,EEGNet
DeepFool_L2,,,999,0.6423611044883728,0.0868055522441864,0.9131944477558136,,,0.9579157255787693,0.1368507353491499,0.1347156749879136,-0.0021350603612362,0.80859375,-0.0003241002369945,0.0423768710353478,0.0427009712723424,"['CP4', 'P2', 'CP2', 'POz', 'CPz']","['P2', 'CP4', 'CP2', 'POz', 'CPz']",1,EEGNet
FGSM,0.25,"[0.2595927119255066, 0.24246302247047424, 0.26307907700538635, 0.27535480260849, 0.2663503587245941, 0.25448399782180786, 0.19535844027996063, 0.2315744310617447, 0.25157639384269714, 0.26958170533180237, 0.2582281231880188, 0.2488684356212616, 0.22476166486740112, 0.23873959481716156, 0.24598656594753265, 0.2548787593841553, 0.2501382529735565, 0.2516990005970001, 0.2438618242740631, 0.24961088597774506, 0.2481745034456253, 0.2498617321252823]",42,0.5868055820465088,0.1701388955116272,0.8298611044883728,"[0.4027777777777778, 0.6111111111111112, 0.9305555555555556, 0.4027777777777778]","[0.0, 0.3194444444444444, 0.3611111111111111, 0.0]",0.96872353190288,0.1640320085171088,0.1642420678836402,0.0002100593665314,0.7109375,0.1190301260273044,0.1294489691534873,0.0104188431261828,"['CP3', 'C1', 'CP4', 'Cz', 'C5']","['CP3', 'C1', 'CP4', 'C5', 'Cz']",1,DeepConvNet
FGSM,0.5,"[0.5191854238510132, 0.4849260449409485, 0.5261581540107727, 0.55070960521698, 0.5327007174491882, 0.5089679956436157, 0.39071688055992126, 0.4631488621234894, 0.5031527876853943, 0.5391634106636047, 0.5164562463760376, 0.4977368712425232, 0.44952332973480225, 0.4774791896343231, 0.4919731318950653, 0.5097575187683105, 0.500276505947113, 0.5033980011940002, 0.4877236485481262, 0.4992217719554901, 0.4963490068912506, 0.4997234642505646]",42,0.5868055820465088,0.0902777761220932,0.9097222238779068,"[0.4027777777777778, 0.6111111111111112, 0.9305555555555556, 0.4027777777777778]","[0.0, 0.2777777777777778, 0.08333333333333333, 0.0]",0.96872353190288,0.1640320085171088,0.1642420678836402,0.0002100593665314,0.7109375,0.1190301260273044,0.1294489691534873,0.0104188431261828,"['CP3', 'C1', 'CP4', 'Cz', 'C5']","['CP3', 'C1', 'CP4', 'C5', 'Cz']",1,DeepConvNet
FGSM,1.0,"[1.0383708477020264, 0.969852089881897, 1.0523163080215454, 1.10141921043396, 1.0654014348983765, 1.0179359912872314, 0.7814337611198425, 0.9262977242469788, 1.0063055753707886, 1.0783268213272095, 1.0329124927520752, 0.9954737424850464, 0.8990466594696045, 0.9549583792686462, 0.9839462637901306, 1.019515037536621, 1.000553011894226, 1.0067960023880005, 0.9754472970962524, 0.9984435439109802, 0.9926980137825012, 0.9994469285011292]",42,0.5868055820465088,0.0590277761220932,0.9409722238779068,"[0.4027777777777778, 0.6111111111111112, 0.9305555555555556, 0.4027777777777778]","[0.0, 0.2222222222222222, 0.013888888888888888, 0.0]",0.96872353190288,0.1640320085171088,0.1642420678836402,0.0002100593665314,0.7109375,0.1190301260273044,0.1294489691534873,0.0104188431261828,"['CP3', 'C1', 'CP4', 'Cz', 'C5']","['CP3', 'C1', 'CP4', 'C5', 'Cz']",1,DeepConvNet
FGSM,2.0,"[2.0767416954040527, 1.939704179763794, 2.104632616043091, 2.20283842086792, 2.130802869796753, 2.035871982574463, 1.562867522239685, 1.8525954484939575, 2.012611150741577, 2.156653642654419, 2.0658249855041504, 1.9909474849700928, 1.798093318939209, 1.9099167585372925, 1.9678925275802612, 2.039030075073242, 2.001106023788452, 2.013592004776001, 1.9508945941925049, 1.9968870878219604, 1.9853960275650024, 1.9988938570022583]",42,0.5868055820465088,0.0347222238779068,0.9652777761220932,"[0.4027777777777778, 0.6111111111111112, 0.9305555555555556, 0.4027777777777778]","[0.0, 0.125, 0.013888888888888888, 0.0]",0.96872353190288,0.1640320085171088,0.1642420678836402,0.0002100593665314,0.7109375,0.1190301260273044,0.1294489691534873,0.0104188431261828,"['CP3', 'C1', 'CP4', 'Cz', 'C5']","['CP3', 'C1', 'CP4', 'C5', 'Cz']",1,DeepConvNet
PGD,0.25,"[0.2595927119255066, 0.24246302247047424, 0.26307907700538635, 0.27535480260849, 0.2663503587245941, 0.25448399782180786, 0.19535844027996063, 0.2315744310617447, 0.25157639384269714, 0.26958170533180237, 0.2582281231880188, 0.2488684356212616, 0.22476166486740112, 0.23873959481716156, 0.24598656594753265, 0.2548787593841553, 0.2501382529735565, 0.2516990005970001, 0.2438618242740631, 0.24961088597774506, 0.2481745034456253, 0.2498617321252823]",42,0.5868055820465088,0.0868055522441864,0.9131944477558136,"[0.4027777777777778, 0.6111111111111112, 0.9305555555555556, 0.4027777777777778]","[0.0, 0.25, 0.09722222222222222, 0.0]",0.965909090909091,0.1640320085171088,0.1643380202014407,0.0003060116843319,0.68359375,0.1190301260273044,0.1368277747900715,0.017797648762767,"['CP3', 'C1', 'CP4', 'Cz', 'C5']","['CP3', 'C1', 'CP4', 'C5', 'Cz']",1,DeepConvNet
PGD,0.5,"[0.5191854238510132, 0.4849260449409485, 0.5261581540107727, 0.55070960521698, 0.5327007174491882, 0.5089679956436157, 0.39071688055992126, 0.4631488621234894, 0.5031527876853943, 0.5391634106636047, 0.5164562463760376, 0.4977368712425232, 0.44952332973480225, 0.4774791896343231, 0.4919731318950653, 0.5097575187683105, 0.500276505947113, 0.5033980011940002, 0.4877236485481262, 0.4992217719554901, 0.4963490068912506, 0.4997234642505646]",42,0.5868055820465088,0.0034722222480922,0.9965277777519076,"[0.4027777777777778, 0.6111111111111112, 0.9305555555555556, 0.4027777777777778]","[0.0, 0.0, 0.013888888888888888, 0.0]",0.965909090909091,0.1640320085171088,0.1643380202014407,0.0003060116843319,0.68359375,0.1190301260273044,0.1368277747900715,0.017797648762767,"['CP3', 'C1', 'CP4', 'Cz', 'C5']","['CP3', 'C1', 'CP4', 'C5', 'Cz']",1,DeepConvNet
PGD,1.0,"[1.0383708477020264, 0.969852089881897, 1.0523163080215454, 1.10141921043396, 1.0654014348983765, 1.0179359912872314, 0.7814337611198425, 0.9262977242469788, 1.0063055753707886, 1.0783268213272095, 1.0329124927520752, 0.9954737424850464, 0.8990466594696045, 0.9549583792686462, 0.9839462637901306, 1.019515037536621, 1.000553011894226, 1.0067960023880005, 0.9754472970962524, 0.9984435439109802, 0.9926980137825012, 0.9994469285011292]",42,0.5868055820465088,0.0,1.0,"[0.4027777777777778, 0.6111111111111112, 0.9305555555555556, 0.4027777777777778]","[0.0, 0.0, 0.0, 0.0]",0.965909090909091,0.1640320085171088,0.1643380202014407,0.0003060116843319,0.68359375,0.1190301260273044,0.1368277747900715,0.017797648762767,"['CP3', 'C1', 'CP4', 'Cz', 'C5']","['CP3', 'C1', 'CP4', 'C5', 'Cz']",1,DeepConvNet
PGD,2.0,"[2.0767416954040527, 1.939704179763794, 2.104632616043091, 2.20283842086792, 2.130802869796753, 2.035871982574463, 1.562867522239685, 1.8525954484939575, 2.012611150741577, 2.156653642654419, 2.0658249855041504, 1.9909474849700928, 1.798093318939209, 1.9099167585372925, 1.9678925275802612, 2.039030075073242, 2.001106023788452, 2.013592004776001, 1.9508945941925049, 1.9968870878219604, 1.9853960275650024, 1.9988938570022583]",42,0.5868055820465088,0.0,1.0,"[0.4027777777777778, 0.6111111111111112, 0.9305555555555556, 0.4027777777777778]","[0.0, 0.0, 0.0, 0.0]",0.965909090909091,0.1640320085171088,0.1643380202014407,0.0003060116843319,0.68359375,0.1190301260273044,0.1368277747900715,0.017797648762767,"['CP3', 'C1', 'CP4', 'Cz', 'C5']","['CP3', 'C1', 'CP4', 'C5', 'Cz']",1,DeepConvNet
FGSM_LP,0.25,"[0.2595927119255066, 0.24246302247047424, 0.26307907700538635, 0.27535480260849, 0.2663503587245941, 0.25448399782180786, 0.19535844027996063, 0.2315744310617447, 0.25157639384269714, 0.26958170533180237, 0.2582281231880188, 0.2488684356212616, 0.22476166486740112, 0.23873959481716156, 0.24598656594753265, 0.2548787593841553, 0.2501382529735565, 0.2516990005970001, 0.2438618242740631, 0.24961088597774506, 0.2481745034456253, 0.2498617321252823]",42,0.5868055820465088,0.5694444179534912,0.4305555820465088,"[0.4027777777777778, 0.6111111111111112, 0.9305555555555556, 0.4027777777777778]","[0.375, 0.5972222222222222, 0.9305555555555556, 0.375]",0.9986765951439864,0.1640320085171088,0.1639849596360851,-4.704888102369242e-05,0.98828125,0.1190301260273044,0.1207523291067972,0.0017222030794927,"['CP3', 'C1', 'CP4', 'Cz', 'C5']","['CP3', 'C1', 'CP4', 'Cz', 'C5']",1,DeepConvNet
FGSM_LP,0.5,"[0.5191854238510132, 0.4849260449409485, 0.5261581540107727, 0.55070960521698, 0.5327007174491882, 0.5089679956436157, 0.39071688055992126, 0.4631488621234894, 0.5031527876853943, 0.5391634106636047, 0.5164562463760376, 0.4977368712425232, 0.44952332973480225, 0.4774791896343231, 0.4919731318950653, 0.5097575187683105, 0.500276505947113, 0.5033980011940002, 0.4877236485481262, 0.4992217719554901, 0.4963490068912506, 0.4997234642505646]",42,0.5868055820465088,0.5,0.5,"[0.4027777777777778, 0.6111111111111112, 0.9305555555555556, 0.4027777777777778]","[0.2777777777777778, 0.5694444444444444, 0.9166666666666666, 0.2361111111111111]",0.9986765951439864,0.1640320085171088,0.1639849596360851,-4.704888102369242e-05,0.98828125,0.1190301260273044,0.1207523291067972,0.0017222030794927,"['CP3', 'C1', 'CP4', 'Cz', 'C5']","['CP3', 'C1', 'CP4', 'Cz', 'C5']",1,DeepConvNet
FGSM_LP,1.0,"[1.0383708477020264, 0.969852089881897, 1.0523163080215454, 1.10141921043396, 1.0654014348983765, 1.0179359912872314, 0.7814337611198425, 0.9262977242469788, 1.0063055753707886, 1.0783268213272095, 1.0329124927520752, 0.9954737424850464, 0.8990466594696045, 0.9549583792686462, 0.9839462637901306, 1.019515037536621, 1.000553011894226, 1.0067960023880005, 0.9754472970962524, 0.9984435439109802, 0.9926980137825012, 0.9994469285011292]",42,0.5868055820465088,0.3229166567325592,0.6770833432674408,"[0.4027777777777778, 0.6111111111111112, 0.9305555555555556, 0.4027777777777778]","[0.1388888888888889, 0.4027777777777778, 0.6527777777777778, 0.09722222222222222]",0.9986765951439864,0.1640320085171088,0.1639849596360851,-4.704888102369242e-05,0.98828125,0.1190301260273044,0.1207523291067972,0.0017222030794927,"['CP3', 'C1', 'CP4', 'Cz', 'C5']","['CP3', 'C1', 'CP4', 'Cz', 'C5']",1,DeepConvNet
FGSM_LP,2.0,"[2.0767416954040527, 1.939704179763794, 2.104632616043091, 2.20283842086792, 2.130802869796753, 2.035871982574463, 1.562867522239685, 1.8525954484939575, 2.012611150741577, 2.156653642654419, 2.0658249855041504, 1.9909474849700928, 1.798093318939209, 1.9099167585372925, 1.9678925275802612, 2.039030075073242, 2.001106023788452, 2.013592004776001, 1.9508945941925049, 1.9968870878219604, 1.9853960275650024, 1.9988938570022583]",42,0.5868055820465088,0.0486111119389534,0.9513888880610466,"[0.4027777777777778, 0.6111111111111112, 0.9305555555555556, 0.4027777777777778]","[0.0, 0.08333333333333333, 0.1111111111111111, 0.0]",0.9986765951439864,0.1640320085171088,0.1639849596360851,-4.704888102369242e-05,0.98828125,0.1190301260273044,0.1207523291067972,0.0017222030794927,"['CP3', 'C1', 'CP4', 'Cz', 'C5']","['CP3', 'C1', 'CP4', 'Cz', 'C5']",1,DeepConvNet
PGD_LP,0.25,"[0.2595927119255066, 0.24246302247047424, 0.26307907700538635, 0.27535480260849, 0.2663503587245941, 0.25448399782180786, 0.19535844027996063, 0.2315744310617447, 0.25157639384269714, 0.26958170533180237, 0.2582281231880188, 0.2488684356212616, 0.22476166486740112, 0.23873959481716156, 0.24598656594753265, 0.2548787593841553, 0.2501382529735565, 0.2516990005970001, 0.2438618242740631, 0.24961088597774506, 0.2481745034456253, 0.2498617321252823]",42,0.5868055820465088,0.5833333134651184,0.4166666865348816,"[0.4027777777777778, 0.6111111111111112, 0.9305555555555556, 0.4027777777777778]","[0.4166666666666667, 0.6111111111111112, 0.9305555555555556, 0.375]",0.9989059853190289,0.1640320085171088,0.1640099503262461,-2.2058190862650484e-05,0.984375,0.1190301260273044,0.1208769280157677,0.0018468019884632,"['CP3', 'C1', 'CP4', 'Cz', 'C5']","['CP3', 'C1', 'CP4', 'Cz', 'C5']",1,DeepConvNet
PGD_LP,0.5,"[0.5191854238510132, 0.4849260449409485, 0.5261581540107727, 0.55070960521698, 0.5327007174491882, 0.5089679956436157, 0.39071688055992126, 0.4631488621234894, 0.5031527876853943, 0.5391634106636047, 0.5164562463760376, 0.4977368712425232, 0.44952332973480225, 0.4774791896343231, 0.4919731318950653, 0.5097575187683105, 0.500276505947113, 0.5033980011940002, 0.4877236485481262, 0.4992217719554901, 0.4963490068912506, 0.4997234642505646]",42,0.5868055820465088,0.53125,0.46875,"[0.4027777777777778, 0.6111111111111112, 0.9305555555555556, 0.4027777777777778]","[0.3333333333333333, 0.5833333333333334, 0.9166666666666666, 0.2916666666666667]",0.9989059853190289,0.1640320085171088,0.1640099503262461,-2.2058190862650484e-05,0.984375,0.1190301260273044,0.1208769280157677,0.0018468019884632,"['CP3', 'C1', 'CP4', 'Cz', 'C5']","['CP3', 'C1', 'CP4', 'Cz', 'C5']",1,DeepConvNet
PGD_LP,1.0,"[1.0383708477020264, 0.969852089881897, 1.0523163080215454, 1.10141921043396, 1.0654014348983765, 1.0179359912872314, 0.7814337611198425, 0.9262977242469788, 1.0063055753707886, 1.0783268213272095, 1.0329124927520752, 0.9954737424850464, 0.8990466594696045, 0.9549583792686462, 0.9839462637901306, 1.019515037536621, 1.000553011894226, 1.0067960023880005, 0.9754472970962524, 0.9984435439109802, 0.9926980137825012, 0.9994469285011292]",42,0.5868055820465088,0.3819444477558136,0.6180555522441864,"[0.4027777777777778, 0.6111111111111112, 0.9305555555555556, 0.4027777777777778]","[0.19444444444444445, 0.4583333333333333, 0.7361111111111112, 0.1388888888888889]",0.9989059853190289,0.1640320085171088,0.1640099503262461,-2.2058190862650484e-05,0.984375,0.1190301260273044,0.1208769280157677,0.0018468019884632,"['CP3', 'C1', 'CP4', 'Cz', 'C5']","['CP3', 'C1', 'CP4', 'Cz', 'C5']",1,DeepConvNet
PGD_LP,2.0,"[2.0767416954040527, 1.939704179763794, 2.104632616043091, 2.20283842086792, 2.130802869796753, 2.035871982574463, 1.562867522239685, 1.8525954484939575, 2.012611150741577, 2.156653642654419, 2.0658249855041504, 1.9909474849700928, 1.798093318939209, 1.9099167585372925, 1.9678925275802612, 2.039030075073242, 2.001106023788452, 2.013592004776001, 1.9508945941925049, 1.9968870878219604, 1.9853960275650024, 1.9988938570022583]",42,0.5868055820465088,0.09375,0.90625,"[0.4027777777777778, 0.6111111111111112, 0.9305555555555556, 0.4027777777777778]","[0.041666666666666664, 0.19444444444444445, 0.1111111111111111, 0.027777777777777776]",0.9989059853190289,0.1640320085171088,0.1640099503262461,-2.2058190862650484e-05,0.984375,0.1190301260273044,0.1208769280157677,0.0018468019884632,"['CP3', 'C1', 'CP4', 'Cz', 'C5']","['CP3', 'C1', 'CP4', 'Cz', 'C5']",1,DeepConvNet
DeepFool_L2,,,42,0.5868055820465088,0.1006944477558136,0.8993055522441864,,,0.9780667701863356,0.1640320085171088,0.1643380617955941,0.0003060532784853,0.74609375,0.1190301260273044,0.1304479043205912,0.0114177782932867,"['CP3', 'C1', 'CP4', 'Cz', 'C5']","['CP3', 'C1', 'CP4', 'Cz', 'C5']",1,DeepConvNet
FGSM,0.25,"[0.2595927119255066, 0.24246302247047424, 0.26307907700538635, 0.27535480260849, 0.2663503587245941, 0.25448399782180786, 0.19535844027996063, 0.2315744310617447, 0.25157639384269714, 0.26958170533180237, 0.2582281231880188, 0.2488684356212616, 0.22476166486740112, 0.23873959481716156, 0.24598656594753265, 0.2548787593841553, 0.2501382529735565, 0.2516990005970001, 0.2438618242740631, 0.24961088597774506, 0.2481745034456253, 0.2498617321252823]",123,0.59375,0.2916666567325592,0.7083333432674408,"[0.3055555555555556, 0.6388888888888888, 0.9444444444444444, 0.4861111111111111]","[0.0, 0.20833333333333334, 0.9583333333333334, 0.0]",0.9765757340485602,0.167941386931466,0.1647919761892208,-0.0031494107422452,0.42578125,0.0318701430548428,0.0627355148690703,0.0308653718142274,"['CP3', 'CP4', 'C1', 'FC1', 'C3']","['CP3', 'CP4', 'C1', 'FC1', 'Cz']",1,DeepConvNet
FGSM,0.5,"[0.5191854238510132, 0.4849260449409485, 0.5261581540107727, 0.55070960521698, 0.5327007174491882, 0.5089679956436157, 0.39071688055992126, 0.4631488621234894, 0.5031527876853943, 0.5391634106636047, 0.5164562463760376, 0.4977368712425232, 0.44952332973480225, 0.4774791896343231, 0.4919731318950653, 0.5097575187683105, 0.500276505947113, 0.5033980011940002, 0.4877236485481262, 0.4992217719554901, 0.4963490068912506, 0.4997234642505646]",123,0.59375,0.1458333283662796,0.8541666716337204,"[0.3055555555555556, 0.6388888888888888, 0.9444444444444444, 0.4861111111111111]","[0.0, 0.1527777777777778, 0.4305555555555556, 0.0]",0.9765757340485602,0.167941386931466,0.1647919761892208,-0.0031494107422452,0.42578125,0.0318701430548428,0.0627355148690703,0.0308653718142274,"['CP3', 'CP4', 'C1', 'FC1', 'C3']","['CP3', 'CP4', 'C1', 'FC1', 'Cz']",1,DeepConvNet
FGSM,1.0,"[1.0383708477020264, 0.969852089881897, 1.0523163080215454, 1.10141921043396, 1.0654014348983765, 1.0179359912872314, 0.7814337611198425, 0.9262977242469788, 1.0063055753707886, 1.0783268213272095, 1.0329124927520752, 0.9954737424850464, 0.8990466594696045, 0.9549583792686462, 0.9839462637901306, 1.019515037536621, 1.000553011894226, 1.0067960023880005, 0.9754472970962524, 0.9984435439109802, 0.9926980137825012, 0.9994469285011292]",123,0.59375,0.0451388880610466,0.9548611119389534,"[0.3055555555555556, 0.6388888888888888, 0.9444444444444444, 0.4861111111111111]","[0.0, 0.1527777777777778, 0.027777777777777776, 0.0]",0.9765757340485602,0.167941386931466,0.1647919761892208,-0.0031494107422452,0.42578125,0.0318701430548428,0.0627355148690703,0.0308653718142274,"['CP3', 'CP4', 'C1', 'FC1', 'C3']","['CP3', 'CP4', 'C1', 'FC1', 'Cz']",1,DeepConvNet
FGSM,2.0,"[2.0767416954040527, 1.939704179763794, 2.104632616043091, 2.20283842086792, 2.130802869796753, 2.035871982574463, 1.562867522239685, 1.8525954484939575, 2.012611150741577, 2.156653642654419, 2.0658249855041504, 1.9909474849700928, 1.798093318939209, 1.9099167585372925, 1.9678925275802612, 2.039030075073242, 2.001106023788452, 2.013592004776001, 1.9508945941925049, 1.9968870878219604, 1.9853960275650024, 1.9988938570022583]",123,0.59375,0.0416666679084301,0.95833333209157,"[0.3055555555555556, 0.6388888888888888, 0.9444444444444444, 0.4861111111111111]","[0.0, 0.1527777777777778, 0.013888888888888888, 0.0]",0.9765757340485602,0.167941386931466,0.1647919761892208,-0.0031494107422452,0.42578125,0.0318701430548428,0.0627355148690703,0.0308653718142274,"['CP3', 'CP4', 'C1', 'FC1', 'C3']","['CP3', 'CP4', 'C1', 'FC1', 'Cz']",1,DeepConvNet
PGD,0.25,"[0.2595927119255066, 0.24246302247047424, 0.26307907700538635, 0.27535480260849, 0.2663503587245941, 0.25448399782180786, 0.19535844027996063, 0.2315744310617447, 0.25157639384269714, 0.26958170533180237, 0.2582281231880188, 0.2488684356212616, 0.22476166486740112, 0.23873959481716156, 0.24598656594753265, 0.2548787593841553, 0.2501382529735565, 0.2516990005970001, 0.2438618242740631, 0.24961088597774506, 0.2481745034456253, 0.2498617321252823]",123,0.59375,0.2222222238779068,0.7777777761220932,"[0.3055555555555556, 0.6388888888888888, 0.9444444444444444, 0.4861111111111111]","[0.0, 0.05555555555555555, 0.8333333333333334, 0.0]",0.9749611801242236,0.167941386931466,0.165007608490062,-0.002933778441404,0.4296875,0.0318701430548428,0.0671049579090445,0.0352348148542016,"['CP3', 'CP4', 'C1', 'FC1', 'C3']","['CP3', 'CP4', 'C1', 'FC1', 'Cz']",1,DeepConvNet
PGD,0.5,"[0.5191854238510132, 0.4849260449409485, 0.5261581540107727, 0.55070960521698, 0.5327007174491882, 0.5089679956436157, 0.39071688055992126, 0.4631488621234894, 0.5031527876853943, 0.5391634106636047, 0.5164562463760376, 0.4977368712425232, 0.44952332973480225, 0.4774791896343231, 0.4919731318950653, 0.5097575187683105, 0.500276505947113, 0.5033980011940002, 0.4877236485481262, 0.4992217719554901, 0.4963490068912506, 0.4997234642505646]",123,0.59375,0.0069444444961845,0.9930555555038154,"[0.3055555555555556, 0.6388888888888888, 0.9444444444444444, 0.4861111111111111]","[0.0, 0.0, 0.027777777777777776, 0.0]",0.9749611801242236,0.167941386931466,0.165007608490062,-0.002933778441404,0.4296875,0.0318701430548428,0.0671049579090445,0.0352348148542016,"['CP3', 'CP4', 'C1', 'FC1', 'C3']","['CP3', 'CP4', 'C1', 'FC1', 'Cz']",1,DeepConvNet
PGD,1.0,"[1.0383708477020264, 0.969852089881897, 1.0523163080215454, 1.10141921043396, 1.0654014348983765, 1.0179359912872314, 0.7814337611198425, 0.9262977242469788, 1.0063055753707886, 1.0783268213272095, 1.0329124927520752, 0.9954737424850464, 0.8990466594696045, 0.9549583792686462, 0.9839462637901306, 1.019515037536621, 1.000553011894226, 1.0067960023880005, 0.9754472970962524, 0.9984435439109802, 0.9926980137825012, 0.9994469285011292]",123,0.59375,0.0,1.0,"[0.3055555555555556, 0.6388888888888888, 0.9444444444444444, 0.4861111111111111]","[0.0, 0.0, 0.0, 0.0]",0.9749611801242236,0.167941386931466,0.165007608490062,-0.002933778441404,0.4296875,0.0318701430548428,0.0671049579090445,0.0352348148542016,"['CP3', 'CP4', 'C1', 'FC1', 'C3']","['CP3', 'CP4', 'C1', 'FC1', 'Cz']",1,DeepConvNet
PGD,2.0,"[2.0767416954040527, 1.939704179763794, 2.104632616043091, 2.20283842086792, 2.130802869796753, 2.035871982574463, 1.562867522239685, 1.8525954484939575, 2.012611150741577, 2.156653642654419, 2.0658249855041504, 1.9909474849700928, 1.798093318939209, 1.9099167585372925, 1.9678925275802612, 2.039030075073242, 2.001106023788452, 2.013592004776001, 1.9508945941925049, 1.9968870878219604, 1.9853960275650024, 1.9988938570022583]",123,0.59375,0.0,1.0,"[0.3055555555555556, 0.6388888888888888, 0.9444444444444444, 0.4861111111111111]","[0.0, 0.0, 0.0, 0.0]",0.9749611801242236,0.167941386931466,0.165007608490062,-0.002933778441404,0.4296875,0.0318701430548428,0.0671049579090445,0.0352348148542016,"['CP3', 'CP4', 'C1', 'FC1', 'C3']","['CP3', 'CP4', 'C1', 'FC1', 'Cz']",1,DeepConvNet
FGSM_LP,0.25,"[0.2595927119255066, 0.24246302247047424, 0.26307907700538635, 0.27535480260849, 0.2663503587245941, 0.25448399782180786, 0.19535844027996063, 0.2315744310617447, 0.25157639384269714, 0.26958170533180237, 0.2582281231880188, 0.2488684356212616, 0.22476166486740112, 0.23873959481716156, 0.24598656594753265, 0.2548787593841553, 0.2501382529735565, 0.2516990005970001, 0.2438618242740631, 0.24961088597774506, 0.2481745034456253, 0.2498617321252823]",123,0.59375,0.5659722089767456,0.4340277910232544,"[0.3055555555555556, 0.6388888888888888, 0.9444444444444444, 0.4861111111111111]","[0.2638888888888889, 0.6388888888888888, 0.9444444444444444, 0.4166666666666667]",0.9988618718238284,0.167941386931466,0.1678171747412414,-0.0001242121902246,0.9765625,0.0318701430548428,0.0333227562189894,0.0014526131641465,"['CP3', 'CP4', 'C1', 'FC1', 'C3']","['CP3', 'CP4', 'C1', 'FC1', 'C3']",1,DeepConvNet
FGSM_LP,0.5,"[0.5191854238510132, 0.4849260449409485, 0.5261581540107727, 0.55070960521698, 0.5327007174491882, 0.5089679956436157, 0.39071688055992126, 0.4631488621234894, 0.5031527876853943, 0.5391634106636047, 0.5164562463760376, 0.4977368712425232, 0.44952332973480225, 0.4774791896343231, 0.4919731318950653, 0.5097575187683105, 0.500276505947113, 0.5033980011940002, 0.4877236485481262, 0.4992217719554901, 0.4963490068912506, 0.4997234642505646]",123,0.59375,0.5243055820465088,0.4756944179534912,"[0.3055555555555556, 0.6388888888888888, 0.9444444444444444, 0.4861111111111111]","[0.25, 0.5833333333333334, 0.9305555555555556, 0.3333333333333333]",0.9988618718238284,0.167941386931466,0.1678171747412414,-0.0001242121902246,0.9765625,0.0318701430548428,0.0333227562189894,0.0014526131641465,"['CP3', 'CP4', 'C1', 'FC1', 'C3']","['CP3', 'CP4', 'C1', 'FC1', 'C3']",1,DeepConvNet
FGSM_LP,1.0,"[1.0383708477020264, 0.969852089881897, 1.0523163080215454, 1.10141921043396, 1.0654014348983765, 1.0179359912872314, 0.7814337611198425, 0.9262977242469788, 1.0063055753707886, 1.0783268213272095, 1.0329124927520752, 0.9954737424850464, 0.8990466594696045, 0.9549583792686462, 0.9839462637901306, 1.019515037536621, 1.000553011894226, 1.0067960023880005, 0.9754472970962524, 0.9984435439109802, 0.9926980137825012, 0.9994469285011292]",123,0.59375,0.375,0.625,"[0.3055555555555556, 0.6388888888888888, 0.9444444444444444, 0.4861111111111111]","[0.125, 0.4305555555555556, 0.8055555555555556, 0.1388888888888889]",0.9988618718238284,0.167941386931466,0.1678171747412414,-0.0001242121902246,0.9765625,0.0318701430548428,0.0333227562189894,0.0014526131641465,"['CP3', 'CP4', 'C1', 'FC1', 'C3']","['CP3', 'CP4', 'C1', 'FC1', 'C3']",1,DeepConvNet
FGSM_LP,2.0,"[2.0767416954040527, 1.939704179763794, 2.104632616043091, 2.20283842086792, 2.130802869796753, 2.035871982574463, 1.562867522239685, 1.8525954484939575, 2.012611150741577, 2.156653642654419, 2.0658249855041504, 1.9909474849700928, 1.798093318939209, 1.9099167585372925, 1.9678925275802612, 2.039030075073242, 2.001106023788452, 2.013592004776001, 1.9508945941925049, 1.9968870878219604, 1.9853960275650024, 1.9988938570022583]",123,0.59375,0.0798611119389534,0.9201388880610466,"[0.3055555555555556, 0.6388888888888888, 0.9444444444444444, 0.4861111111111111]","[0.0, 0.1527777777777778, 0.1527777777777778, 0.013888888888888888]",0.9988618718238284,0.167941386931466,0.1678171747412414,-0.0001242121902246,0.9765625,0.0318701430548428,0.0333227562189894,0.0014526131641465,"['CP3', 'CP4', 'C1', 'FC1', 'C3']","['CP3', 'CP4', 'C1', 'FC1', 'C3']",1,DeepConvNet
PGD_LP,0.25,"[0.2595927119255066, 0.24246302247047424, 0.26307907700538635, 0.27535480260849, 0.2663503587245941, 0.25448399782180786, 0.19535844027996063, 0.2315744310617447, 0.25157639384269714, 0.26958170533180237, 0.2582281231880188, 0.2488684356212616, 0.22476166486740112, 0.23873959481716156, 0.24598656594753265, 0.2548787593841553, 0.2501382529735565, 0.2516990005970001, 0.2438618242740631, 0.24961088597774506, 0.2481745034456253, 0.2498617321252823]",123,0.59375,0.5729166865348816,0.4270833134651184,"[0.3055555555555556, 0.6388888888888888, 0.9444444444444444, 0.4861111111111111]","[0.2916666666666667, 0.6388888888888888, 0.9444444444444444, 0.4166666666666667]",0.9989500988142292,0.167941386931466,0.1677900528205498,-0.0001513341109161,0.97265625,0.0318701430548428,0.0331679982652355,0.0012978552103926,"['CP3', 'CP4', 'C1', 'FC1', 'C3']","['CP3', 'CP4', 'C1', 'FC1', 'C3']",1,DeepConvNet
PGD_LP,0.5,"[0.5191854238510132, 0.4849260449409485, 0.5261581540107727, 0.55070960521698, 0.5327007174491882, 0.5089679956436157, 0.39071688055992126, 0.4631488621234894, 0.5031527876853943, 0.5391634106636047, 0.5164562463760376, 0.4977368712425232, 0.44952332973480225, 0.4774791896343231, 0.4919731318950653, 0.5097575187683105, 0.500276505947113, 0.5033980011940002, 0.4877236485481262, 0.4992217719554901, 0.4963490068912506, 0.4997234642505646]",123,0.59375,0.5451388955116272,0.4548611044883728,"[0.3055555555555556, 0.6388888888888888, 0.9444444444444444, 0.4861111111111111]","[0.3194444444444444, 0.5972222222222222, 0.9305555555555556, 0.3333333333333333]",0.9989500988142292,0.167941386931466,0.1677900528205498,-0.0001513341109161,0.97265625,0.0318701430548428,0.0331679982652355,0.0012978552103926,"['CP3', 'CP4', 'C1', 'FC1', 'C3']","['CP3', 'CP4', 'C1', 'FC1', 'C3']",1,DeepConvNet
PGD_LP,1.0,"[1.0383708477020264, 0.969852089881897, 1.0523163080215454, 1.10141921043396, 1.0654014348983765, 1.0179359912872314, 0.7814337611198425, 0.9262977242469788, 1.0063055753707886, 1.0783268213272095, 1.0329124927520752, 0.9954737424850464, 0.8990466594696045, 0.9549583792686462, 0.9839462637901306, 1.019515037536621, 1.000553011894226, 1.0067960023880005, 0.9754472970962524, 0.9984435439109802, 0.9926980137825012, 0.9994469285011292]",123,0.59375,0.4479166567325592,0.5520833432674408,"[0.3055555555555556, 0.6388888888888888, 0.9444444444444444, 0.4861111111111111]","[0.2638888888888889, 0.5, 0.8333333333333334, 0.19444444444444445]",0.9989500988142292,0.167941386931466,0.1677900528205498,-0.0001513341109161,0.97265625,0.0318701430548428,0.0331679982652355,0.0012978552103926,"['CP3', 'CP4', 'C1', 'FC1', 'C3']","['CP3', 'CP4', 'C1', 'FC1', 'C3']",1,DeepConvNet
PGD_LP,2.0,"[2.0767416954040527, 1.939704179763794, 2.104632616043091, 2.20283842086792, 2.130802869796753, 2.035871982574463, 1.562867522239685, 1.8525954484939575, 2.012611150741577, 2.156653642654419, 2.0658249855041504, 1.9909474849700928, 1.798093318939209, 1.9099167585372925, 1.9678925275802612, 2.039030075073242, 2.001106023788452, 2.013592004776001, 1.9508945941925049, 1.9968870878219604, 1.9853960275650024, 1.9988938570022583]",123,0.59375,0.125,0.875,"[0.3055555555555556, 0.6388888888888888, 0.9444444444444444, 0.4861111111111111]","[0.027777777777777776, 0.25, 0.1527777777777778, 0.06944444444444445]",0.9989500988142292,0.167941386931466,0.1677900528205498,-0.0001513341109161,0.97265625,0.0318701430548428,0.0331679982652355,0.0012978552103926,"['CP3', 'CP4', 'C1', 'FC1', 'C3']","['CP3', 'CP4', 'C1', 'FC1', 'C3']",1,DeepConvNet
DeepFool_L2,,,123,0.59375,0.1076388880610466,0.8923611119389534,,,0.9824516516092604,0.167941386931466,0.1666868561645703,-0.0012545307668956,0.64453125,0.0318701430548428,0.0601707690915393,0.0283006260366965,"['CP3', 'CP4', 'C1', 'FC1', 'C3']","['CP3', 'CP4', 'C1', 'FC1', 'C3']",1,DeepConvNet
FGSM,0.25,"[0.2595927119255066, 0.24246302247047424, 0.26307907700538635, 0.27535480260849, 0.2663503587245941, 0.25448399782180786, 0.19535844027996063, 0.2315744310617447, 0.25157639384269714, 0.26958170533180237, 0.2582281231880188, 0.2488684356212616, 0.22476166486740112, 0.23873959481716156, 0.24598656594753265, 0.2548787593841553, 0.2501382529735565, 0.2516990005970001, 0.2438618242740631, 0.24961088597774506, 0.2481745034456253, 0.2498617321252823]",2024,0.6111111044883728,0.25,0.75,"[0.4027777777777778, 0.625, 0.9722222222222222, 0.4444444444444444]","[0.0, 0.2777777777777778, 0.7222222222222222, 0.0]",0.9648944805194806,0.1838319323664822,0.180979182562734,-0.0028527498037482,0.703125,0.1510009695596074,0.2188749433266993,0.0678739737670919,"['CP3', 'CP4', 'C1', 'C3', 'Cz']","['CP3', 'C1', 'C3', 'CP4', 'Cz']",1,DeepConvNet
FGSM,0.5,"[0.5191854238510132, 0.4849260449409485, 0.5261581540107727, 0.55070960521698, 0.5327007174491882, 0.5089679956436157, 0.39071688055992126, 0.4631488621234894, 0.5031527876853943, 0.5391634106636047, 0.5164562463760376, 0.4977368712425232, 0.44952332973480225, 0.4774791896343231, 0.4919731318950653, 0.5097575187683105, 0.500276505947113, 0.5033980011940002, 0.4877236485481262, 0.4992217719554901, 0.4963490068912506, 0.4997234642505646]",2024,0.6111111044883728,0.0902777761220932,0.9097222238779068,"[0.4027777777777778, 0.625, 0.9722222222222222, 0.4444444444444444]","[0.0, 0.25, 0.1111111111111111, 0.0]",0.9648944805194806,0.1838319323664822,0.180979182562734,-0.0028527498037482,0.703125,0.1510009695596074,0.2188749433266993,0.0678739737670919,"['CP3', 'CP4', 'C1', 'C3', 'Cz']","['CP3', 'C1', 'C3', 'CP4', 'Cz']",1,DeepConvNet
FGSM,1.0,"[1.0383708477020264, 0.969852089881897, 1.0523163080215454, 1.10141921043396, 1.0654014348983765, 1.0179359912872314, 0.7814337611198425, 0.9262977242469788, 1.0063055753707886, 1.0783268213272095, 1.0329124927520752, 0.9954737424850464, 0.8990466594696045, 0.9549583792686462, 0.9839462637901306, 1.019515037536621, 1.000553011894226, 1.0067960023880005, 0.9754472970962524, 0.9984435439109802, 0.9926980137825012, 0.9994469285011292]",2024,0.6111111044883728,0.0590277761220932,0.9409722238779068,"[0.4027777777777778, 0.625, 0.9722222222222222, 0.4444444444444444]","[0.0, 0.2222222222222222, 0.013888888888888888, 0.0]",0.9648944805194806,0.1838319323664822,0.180979182562734,-0.0028527498037482,0.703125,0.1510009695596074,0.2188749433266993,0.0678739737670919,"['CP3', 'CP4', 'C1', 'C3', 'Cz']","['CP3', 'C1', 'C3', 'CP4', 'Cz']",1,DeepConvNet
FGSM,2.0,"[2.0767416954040527, 1.939704179763794, 2.104632616043091, 2.20283842086792, 2.130802869796753, 2.035871982574463, 1.562867522239685, 1.8525954484939575, 2.012611150741577, 2.156653642654419, 2.0658249855041504, 1.9909474849700928, 1.798093318939209, 1.9099167585372925, 1.9678925275802612, 2.039030075073242, 2.001106023788452, 2.013592004776001, 1.9508945941925049, 1.9968870878219604, 1.9853960275650024, 1.9988938570022583]",2024,0.6111111044883728,0.0729166641831398,0.9270833358168602,"[0.4027777777777778, 0.625, 0.9722222222222222, 0.4444444444444444]","[0.0, 0.2777777777777778, 0.013888888888888888, 0.0]",0.9648944805194806,0.1838319323664822,0.180979182562734,-0.0028527498037482,0.703125,0.1510009695596074,0.2188749433266993,0.0678739737670919,"['CP3', 'CP4', 'C1', 'C3', 'Cz']","['CP3', 'C1', 'C3', 'CP4', 'Cz']",1,DeepConvNet
PGD,0.25,"[0.2595927119255066, 0.24246302247047424, 0.26307907700538635, 0.27535480260849, 0.2663503587245941, 0.25448399782180786, 0.19535844027996063, 0.2315744310617447, 0.25157639384269714, 0.26958170533180237, 0.2582281231880188, 0.2488684356212616, 0.22476166486740112, 0.23873959481716156, 0.24598656594753265, 0.2548787593841553, 0.2501382529735565, 0.2516990005970001, 0.2438618242740631, 0.24961088597774506, 0.2481745034456253, 0.2498617321252823]",2024,0.6111111044883728,0.1423611044883728,0.8576388955116272,"[0.4027777777777778, 0.625, 0.9722222222222222, 0.4444444444444444]","[0.0, 0.1527777777777778, 0.4166666666666667, 0.0]",0.9634034443817052,0.1838319323664822,0.1811598033111313,-0.0026721290553509,0.7265625,0.1510009695596074,0.2243241058967729,0.0733231363371655,"['CP3', 'CP4', 'C1', 'C3', 'Cz']","['CP3', 'C1', 'C3', 'CP4', 'Cz']",1,DeepConvNet
PGD,0.5,"[0.5191854238510132, 0.4849260449409485, 0.5261581540107727, 0.55070960521698, 0.5327007174491882, 0.5089679956436157, 0.39071688055992126, 0.4631488621234894, 0.5031527876853943, 0.5391634106636047, 0.5164562463760376, 0.4977368712425232, 0.44952332973480225, 0.4774791896343231, 0.4919731318950653, 0.5097575187683105, 0.500276505947113, 0.5033980011940002, 0.4877236485481262, 0.4992217719554901, 0.4963490068912506, 0.4997234642505646]",2024,0.6111111044883728,0.0,1.0,"[0.4027777777777778, 0.625, 0.9722222222222222, 0.4444444444444444]","[0.0, 0.0, 0.0, 0.0]",0.9634034443817052,0.1838319323664822,0.1811598033111313,-0.0026721290553509,0.7265625,0.1510009695596074,0.2243241058967729,0.0733231363371655,"['CP3', 'CP4', 'C1', 'C3', 'Cz']","['CP3', 'C1', 'C3', 'CP4', 'Cz']",1,DeepConvNet
PGD,1.0,"[1.0383708477020264, 0.969852089881897, 1.0523163080215454, 1.10141921043396, 1.0654014348983765, 1.0179359912872314, 0.7814337611198425, 0.9262977242469788, 1.0063055753707886, 1.0783268213272095, 1.0329124927520752, 0.9954737424850464, 0.8990466594696045, 0.9549583792686462, 0.9839462637901306, 1.019515037536621, 1.000553011894226, 1.0067960023880005, 0.9754472970962524, 0.9984435439109802, 0.9926980137825012, 0.9994469285011292]",2024,0.6111111044883728,0.0,1.0,"[0.4027777777777778, 0.625, 0.9722222222222222, 0.4444444444444444]","[0.0, 0.0, 0.0, 0.0]",0.9634034443817052,0.1838319323664822,0.1811598033111313,-0.0026721290553509,0.7265625,0.1510009695596074,0.2243241058967729,0.0733231363371655,"['CP3', 'CP4', 'C1', 'C3', 'Cz']","['CP3', 'C1', 'C3', 'CP4', 'Cz']",1,DeepConvNet
PGD,2.0,"[2.0767416954040527, 1.939704179763794, 2.104632616043091, 2.20283842086792, 2.130802869796753, 2.035871982574463, 1.562867522239685, 1.8525954484939575, 2.012611150741577, 2.156653642654419, 2.0658249855041504, 1.9909474849700928, 1.798093318939209, 1.9099167585372925, 1.9678925275802612, 2.039030075073242, 2.001106023788452, 2.013592004776001, 1.9508945941925049, 1.9968870878219604, 1.9853960275650024, 1.9988938570022583]",2024,0.6111111044883728,0.0,1.0,"[0.4027777777777778, 0.625, 0.9722222222222222, 0.4444444444444444]","[0.0, 0.0, 0.0, 0.0]",0.9634034443817052,0.1838319323664822,0.1811598033111313,-0.0026721290553509,0.7265625,0.1510009695596074,0.2243241058967729,0.0733231363371655,"['CP3', 'CP4', 'C1', 'C3', 'Cz']","['CP3', 'C1', 'C3', 'CP4', 'Cz']",1,DeepConvNet
FGSM_LP,0.25,"[0.2595927119255066, 0.24246302247047424, 0.26307907700538635, 0.27535480260849, 0.2663503587245941, 0.25448399782180786, 0.19535844027996063, 0.2315744310617447, 0.25157639384269714, 0.26958170533180237, 0.2582281231880188, 0.2488684356212616, 0.22476166486740112, 0.23873959481716156, 0.24598656594753265, 0.2548787593841553, 0.2501382529735565, 0.2516990005970001, 0.2438618242740631, 0.24961088597774506, 0.2481745034456253, 0.2498617321252823]",2024,0.6111111044883728,0.5798611044883728,0.4201388955116272,"[0.4027777777777778, 0.625, 0.9722222222222222, 0.4444444444444444]","[0.375, 0.6111111111111112, 0.9722222222222222, 0.3611111111111111]",0.9987207086391868,0.1838319323664822,0.1838106576264861,-2.127473999610774e-05,0.98828125,0.1510009695596074,0.1528418586329036,0.0018408890732961,"['CP3', 'CP4', 'C1', 'C3', 'Cz']","['CP3', 'CP4', 'C1', 'C3', 'Cz']",1,DeepConvNet
FGSM_LP,0.5,"[0.5191854238510132, 0.4849260449409485, 0.5261581540107727, 0.55070960521698, 0.5327007174491882, 0.5089679956436157, 0.39071688055992126, 0.4631488621234894, 0.5031527876853943, 0.5391634106636047, 0.5164562463760376, 0.4977368712425232, 0.44952332973480225, 0.4774791896343231, 0.4919731318950653, 0.5097575187683105, 0.500276505947113, 0.5033980011940002, 0.4877236485481262, 0.4992217719554901, 0.4963490068912506, 0.4997234642505646]",2024,0.6111111044883728,0.5173611044883728,0.4826388955116272,"[0.4027777777777778, 0.625, 0.9722222222222222, 0.4444444444444444]","[0.2777777777777778, 0.5694444444444444, 0.9444444444444444, 0.2777777777777778]",0.9987207086391868,0.1838319323664822,0.1838106576264861,-2.127473999610774e-05,0.98828125,0.1510009695596074,0.1528418586329036,0.0018408890732961,"['CP3', 'CP4', 'C1', 'C3', 'Cz']","['CP3', 'CP4', 'C1', 'C3', 'Cz']",1,DeepConvNet
FGSM_LP,1.0,"[1.0383708477020264, 0.969852089881897, 1.0523163080215454, 1.10141921043396, 1.0654014348983765, 1.0179359912872314, 0.7814337611198425, 0.9262977242469788, 1.0063055753707886, 1.0783268213272095, 1.0329124927520752, 0.9954737424850464, 0.8990466594696045, 0.9549583792686462, 0.9839462637901306, 1.019515037536621, 1.000553011894226, 1.0067960023880005, 0.9754472970962524, 0.9984435439109802, 0.9926980137825012, 0.9994469285011292]",2024,0.6111111044883728,0.3854166567325592,0.6145833432674408,"[0.4027777777777778, 0.625, 0.9722222222222222, 0.4444444444444444]","[0.1388888888888889, 0.4583333333333333, 0.7916666666666666, 0.1527777777777778]",0.9987207086391868,0.1838319323664822,0.1838106576264861,-2.127473999610774e-05,0.98828125,0.1510009695596074,0.1528418586329036,0.0018408890732961,"['CP3', 'CP4', 'C1', 'C3', 'Cz']","['CP3', 'CP4', 'C1', 'C3', 'Cz']",1,DeepConvNet
FGSM_LP,2.0,"[2.0767416954040527, 1.939704179763794, 2.104632616043091, 2.20283842086792, 2.130802869796753, 2.035871982574463, 1.562867522239685, 1.8525954484939575, 2.012611150741577, 2.156653642654419, 2.0658249855041504, 1.9909474849700928, 1.798093318939209, 1.9099167585372925, 1.9678925275802612, 2.039030075073242, 2.001106023788452, 2.013592004776001, 1.9508945941925049, 1.9968870878219604, 1.9853960275650024, 1.9988938570022583]",2024,0.6111111044883728,0.09375,0.90625,"[0.4027777777777778, 0.625, 0.9722222222222222, 0.4444444444444444]","[0.013888888888888888, 0.20833333333333334, 0.125, 0.027777777777777776]",0.9987207086391868,0.1838319323664822,0.1838106576264861,-2.127473999610774e-05,0.98828125,0.1510009695596074,0.1528418586329036,0.0018408890732961,"['CP3', 'CP4', 'C1', 'C3', 'Cz']","['CP3', 'CP4', 'C1', 'C3', 'Cz']",1,DeepConvNet
PGD_LP,0.25,"[0.2595927119255066, 0.24246302247047424, 0.26307907700538635, 0.27535480260849, 0.2663503587245941, 0.25448399782180786, 0.19535844027996063, 0.2315744310617447, 0.25157639384269714, 0.26958170533180237, 0.2582281231880188, 0.2488684356212616, 0.22476166486740112, 0.23873959481716156, 0.24598656594753265, 0.2548787593841553, 0.2501382529735565, 0.2516990005970001, 0.2438618242740631, 0.24961088597774506, 0.2481745034456253, 0.2498617321252823]",2024,0.6111111044883728,0.5833333134651184,0.4166666865348816,"[0.4027777777777778, 0.625, 0.9722222222222222, 0.4444444444444444]","[0.375, 0.6111111111111112, 0.9722222222222222, 0.375]",0.9988442264257482,0.1838319323664822,0.1838327305513167,7.981848344218445e-07,0.9921875,0.1510009695596074,0.1528748258265496,0.0018738562669422,"['CP3', 'CP4', 'C1', 'C3', 'Cz']","['CP3', 'CP4', 'C1', 'C3', 'Cz']",1,DeepConvNet
PGD_LP,0.5,"[0.5191854238510132, 0.4849260449409485, 0.5261581540107727, 0.55070960521698, 0.5327007174491882, 0.5089679956436157, 0.39071688055992126, 0.4631488621234894, 0.5031527876853943, 0.5391634106636047, 0.5164562463760376, 0.4977368712425232, 0.44952332973480225, 0.4774791896343231, 0.4919731318950653, 0.5097575187683105, 0.500276505947113, 0.5033980011940002, 0.4877236485481262, 0.4992217719554901, 0.4963490068912506, 0.4997234642505646]",2024,0.6111111044883728,0.5416666865348816,0.4583333134651184,"[0.4027777777777778, 0.625, 0.9722222222222222, 0.4444444444444444]","[0.3055555555555556, 0.6111111111111112, 0.9444444444444444, 0.3055555555555556]",0.9988442264257482,0.1838319323664822,0.1838327305513167,7.981848344218445e-07,0.9921875,0.1510009695596074,0.1528748258265496,0.0018738562669422,"['CP3', 'CP4', 'C1', 'C3', 'Cz']","['CP3', 'CP4', 'C1', 'C3', 'Cz']",1,DeepConvNet
PGD_LP,1.0,"[1.0383708477020264, 0.969852089881897, 1.0523163080215454, 1.10141921043396, 1.0654014348983765, 1.0179359912872314, 0.7814337611198425, 0.9262977242469788, 1.0063055753707886, 1.0783268213272095, 1.0329124927520752, 0.9954737424850464, 0.8990466594696045, 0.9549583792686462, 0.9839462637901306, 1.019515037536621, 1.000553011894226, 1.0067960023880005, 0.9754472970962524, 0.9984435439109802, 0.9926980137825012, 0.9994469285011292]",2024,0.6111111044883728,0.4340277910232544,0.5659722089767456,"[0.4027777777777778, 0.625, 0.9722222222222222, 0.4444444444444444]","[0.20833333333333334, 0.4722222222222222, 0.8888888888888888, 0.16666666666666666]",0.9988442264257482,0.1838319323664822,0.1838327305513167,7.981848344218445e-07,0.9921875,0.1510009695596074,0.1528748258265496,0.0018738562669422,"['CP3', 'CP4', 'C1', 'C3', 'Cz']","['CP3', 'CP4', 'C1', 'C3', 'Cz']",1,DeepConvNet
PGD_LP,2.0,"[2.0767416954040527, 1.939704179763794, 2.104632616043091, 2.20283842086792, 2.130802869796753, 2.035871982574463, 1.562867522239685, 1.8525954484939575, 2.012611150741577, 2.156653642654419, 2.0658249855041504, 1.9909474849700928, 1.798093318939209, 1.9099167585372925, 1.9678925275802612, 2.039030075073242, 2.001106023788452, 2.013592004776001, 1.9508945941925049, 1.9968870878219604, 1.9853960275650024, 1.9988938570022583]",2024,0.6111111044883728,0.1319444477558136,0.8680555522441864,"[0.4027777777777778, 0.625, 0.9722222222222222, 0.4444444444444444]","[0.027777777777777776, 0.2638888888888889, 0.1527777777777778, 0.08333333333333333]",0.9988442264257482,0.1838319323664822,0.1838327305513167,7.981848344218445e-07,0.9921875,0.1510009695596074,0.1528748258265496,0.0018738562669422,"['CP3', 'CP4', 'C1', 'C3', 'Cz']","['CP3', 'CP4', 'C1', 'C3', 'Cz']",1,DeepConvNet
DeepFool_L2,,,2024,0.6111111044883728,0.0902777761220932,0.9097222238779068,,,0.9754376058723886,0.1838319323664822,0.1829803851245746,-0.0008515472419076,0.7890625,0.1510009695596074,0.1782821180582282,0.0272811484986207,"['CP3', 'CP4', 'C1', 'C3', 'Cz']","['CP3', 'C1', 'CP4', 'C3', 'Cz']",1,DeepConvNet
FGSM,0.25,"[0.2595927119255066, 0.24246302247047424, 0.26307907700538635, 0.27535480260849, 0.2663503587245941, 0.25448399782180786, 0.19535844027996063, 0.2315744310617447, 0.25157639384269714, 0.26958170533180237, 0.2582281231880188, 0.2488684356212616, 0.22476166486740112, 0.23873959481716156, 0.24598656594753265, 0.2548787593841553, 0.2501382529735565, 0.2516990005970001, 0.2438618242740631, 0.24961088597774506, 0.2481745034456253, 0.2498617321252823]",31415,0.5798611044883728,0.15625,0.84375,"[0.4027777777777778, 0.6666666666666666, 0.9583333333333334, 0.2916666666666667]","[0.0, 0.3472222222222222, 0.2777777777777778, 0.0]",0.9499400056465276,0.1604039931819775,0.1571652296641649,-0.0032387635178125,0.7421875,0.1580576388468956,0.208928715866141,0.0508710770192454,"['CP3', 'CP4', 'C1', 'C3', 'FC1']","['CP3', 'C1', 'CP4', 'C3', 'FC1']",1,DeepConvNet
FGSM,0.5,"[0.5191854238510132, 0.4849260449409485, 0.5261581540107727, 0.55070960521698, 0.5327007174491882, 0.5089679956436157, 0.39071688055992126, 0.4631488621234894, 0.5031527876853943, 0.5391634106636047, 0.5164562463760376, 0.4977368712425232, 0.44952332973480225, 0.4774791896343231, 0.4919731318950653, 0.5097575187683105, 0.500276505947113, 0.5033980011940002, 0.4877236485481262, 0.4992217719554901, 0.4963490068912506, 0.4997234642505646]",31415,0.5798611044883728,0.0798611119389534,0.9201388880610466,"[0.4027777777777778, 0.6666666666666666, 0.9583333333333334, 0.2916666666666667]","[0.0, 0.2916666666666667, 0.027777777777777776, 0.0]",0.9499400056465276,0.1604039931819775,0.1571652296641649,-0.0032387635178125,0.7421875,0.1580576388468956,0.208928715866141,0.0508710770192454,"['CP3', 'CP4', 'C1', 'C3', 'FC1']","['CP3', 'C1', 'CP4', 'C3', 'FC1']",1,DeepConvNet
FGSM,1.0,"[1.0383708477020264, 0.969852089881897, 1.0523163080215454, 1.10141921043396, 1.0654014348983765, 1.0179359912872314, 0.7814337611198425, 0.9262977242469788, 1.0063055753707886, 1.0783268213272095, 1.0329124927520752, 0.9954737424850464, 0.8990466594696045, 0.9549583792686462, 0.9839462637901306, 1.019515037536621, 1.000553011894226, 1.0067960023880005, 0.9754472970962524, 0.9984435439109802, 0.9926980137825012, 0.9994469285011292]",31415,0.5798611044883728,0.0659722238779068,0.9340277761220932,"[0.4027777777777778, 0.6666666666666666, 0.9583333333333334, 0.2916666666666667]","[0.0, 0.25, 0.013888888888888888, 0.0]",0.9499400056465276,0.1604039931819775,0.1571652296641649,-0.0032387635178125,0.7421875,0.1580576388468956,0.208928715866141,0.0508710770192454,"['CP3', 'CP4', 'C1', 'C3', 'FC1']","['CP3', 'C1', 'CP4', 'C3', 'FC1']",1,DeepConvNet
FGSM,2.0,"[2.0767416954040527, 1.939704179763794, 2.104632616043091, 2.20283842086792, 2.130802869796753, 2.035871982574463, 1.562867522239685, 1.8525954484939575, 2.012611150741577, 2.156653642654419, 2.0658249855041504, 1.9909474849700928, 1.798093318939209, 1.9099167585372925, 1.9678925275802612, 2.039030075073242, 2.001106023788452, 2.013592004776001, 1.9508945941925049, 1.9968870878219604, 1.9853960275650024, 1.9988938570022583]",31415,0.5798611044883728,0.0729166641831398,0.9270833358168602,"[0.4027777777777778, 0.6666666666666666, 0.9583333333333334, 0.2916666666666667]","[0.0, 0.2777777777777778, 0.013888888888888888, 0.0]",0.9499400056465276,0.1604039931819775,0.1571652296641649,-0.0032387635178125,0.7421875,0.1580576388468956,0.208928715866141,0.0508710770192454,"['CP3', 'CP4', 'C1', 'C3', 'FC1']","['CP3', 'C1', 'CP4', 'C3', 'FC1']",1,DeepConvNet
PGD,0.25,"[0.2595927119255066, 0.24246302247047424, 0.26307907700538635, 0.27535480260849, 0.2663503587245941, 0.25448399782180786, 0.19535844027996063, 0.2315744310617447, 0.25157639384269714, 0.26958170533180237, 0.2582281231880188, 0.2488684356212616, 0.22476166486740112, 0.23873959481716156, 0.24598656594753265, 0.2548787593841553, 0.2501382529735565, 0.2516990005970001, 0.2438618242740631, 0.24961088597774506, 0.2481745034456253, 0.2498617321252823]",31415,0.5798611044883728,0.0833333358168602,0.9166666641831398,"[0.4027777777777778, 0.6666666666666666, 0.9583333333333334, 0.2916666666666667]","[0.0, 0.2916666666666667, 0.041666666666666664, 0.0]",0.9479813664596276,0.1604039931819775,0.1571435517033493,-0.0032604414786282,0.73828125,0.1580576388468956,0.2135098699586349,0.0554522311117392,"['CP3', 'CP4', 'C1', 'C3', 'FC1']","['CP3', 'C1', 'CP4', 'C3', 'FC1']",1,DeepConvNet
PGD,0.5,"[0.5191854238510132, 0.4849260449409485, 0.5261581540107727, 0.55070960521698, 0.5327007174491882, 0.5089679956436157, 0.39071688055992126, 0.4631488621234894, 0.5031527876853943, 0.5391634106636047, 0.5164562463760376, 0.4977368712425232, 0.44952332973480225, 0.4774791896343231, 0.4919731318950653, 0.5097575187683105, 0.500276505947113, 0.5033980011940002, 0.4877236485481262, 0.4992217719554901, 0.4963490068912506, 0.4997234642505646]",31415,0.5798611044883728,0.0104166669771075,0.9895833330228924,"[0.4027777777777778, 0.6666666666666666, 0.9583333333333334, 0.2916666666666667]","[0.0, 0.041666666666666664, 0.0, 0.0]",0.9479813664596276,0.1604039931819775,0.1571435517033493,-0.0032604414786282,0.73828125,0.1580576388468956,0.2135098699586349,0.0554522311117392,"['CP3', 'CP4', 'C1', 'C3', 'FC1']","['CP3', 'C1', 'CP4', 'C3', 'FC1']",1,DeepConvNet
PGD,1.0,"[1.0383708477020264, 0.969852089881897, 1.0523163080215454, 1.10141921043396, 1.0654014348983765, 1.0179359912872314, 0.7814337611198425, 0.9262977242469788, 1.0063055753707886, 1.0783268213272095, 1.0329124927520752, 0.9954737424850464, 0.8990466594696045, 0.9549583792686462, 0.9839462637901306, 1.019515037536621, 1.000553011894226, 1.0067960023880005, 0.9754472970962524, 0.9984435439109802, 0.9926980137825012, 0.9994469285011292]",31415,0.5798611044883728,0.0,1.0,"[0.4027777777777778, 0.6666666666666666, 0.9583333333333334, 0.2916666666666667]","[0.0, 0.0, 0.0, 0.0]",0.9479813664596276,0.1604039931819775,0.1571435517033493,-0.0032604414786282,0.73828125,0.1580576388468956,0.2135098699586349,0.0554522311117392,"['CP3', 'CP4', 'C1', 'C3', 'FC1']","['CP3', 'C1', 'CP4', 'C3', 'FC1']",1,DeepConvNet
PGD,2.0,"[2.0767416954040527, 1.939704179763794, 2.104632616043091, 2.20283842086792, 2.130802869796753, 2.035871982574463, 1.562867522239685, 1.8525954484939575, 2.012611150741577, 2.156653642654419, 2.0658249855041504, 1.9909474849700928, 1.798093318939209, 1.9099167585372925, 1.9678925275802612, 2.039030075073242, 2.001106023788452, 2.013592004776001, 1.9508945941925049, 1.9968870878219604, 1.9853960275650024, 1.9988938570022583]",31415,0.5798611044883728,0.0,1.0,"[0.4027777777777778, 0.6666666666666666, 0.9583333333333334, 0.2916666666666667]","[0.0, 0.0, 0.0, 0.0]",0.9479813664596276,0.1604039931819775,0.1571435517033493,-0.0032604414786282,0.73828125,0.1580576388468956,0.2135098699586349,0.0554522311117392,"['CP3', 'CP4', 'C1', 'C3', 'FC1']","['CP3', 'C1', 'CP4', 'C3', 'FC1']",1,DeepConvNet
FGSM_LP,0.25,"[0.2595927119255066, 0.24246302247047424, 0.26307907700538635, 0.27535480260849, 0.2663503587245941, 0.25448399782180786, 0.19535844027996063, 0.2315744310617447, 0.25157639384269714, 0.26958170533180237, 0.2582281231880188, 0.2488684356212616, 0.22476166486740112, 0.23873959481716156, 0.24598656594753265, 0.2548787593841553, 0.2501382529735565, 0.2516990005970001, 0.2438618242740631, 0.24961088597774506, 0.2481745034456253, 0.2498617321252823]",31415,0.5798611044883728,0.5520833134651184,0.4479166865348816,"[0.4027777777777778, 0.6666666666666666, 0.9583333333333334, 0.2916666666666667]","[0.375, 0.6666666666666666, 0.9444444444444444, 0.2222222222222222]",0.9983942687747036,0.1604039931819775,0.1602880155114767,-0.0001159776705007,0.98828125,0.1580576388468956,0.1593203036755442,0.0012626648286486,"['CP3', 'CP4', 'C1', 'C3', 'FC1']","['CP3', 'CP4', 'C1', 'C3', 'FC1']",1,DeepConvNet
FGSM_LP,0.5,"[0.5191854238510132, 0.4849260449409485, 0.5261581540107727, 0.55070960521698, 0.5327007174491882, 0.5089679956436157, 0.39071688055992126, 0.4631488621234894, 0.5031527876853943, 0.5391634106636047, 0.5164562463760376, 0.4977368712425232, 0.44952332973480225, 0.4774791896343231, 0.4919731318950653, 0.5097575187683105, 0.500276505947113, 0.5033980011940002, 0.4877236485481262, 0.4992217719554901, 0.4963490068912506, 0.4997234642505646]",31415,0.5798611044883728,0.4895833432674408,0.5104166567325592,"[0.4027777777777778, 0.6666666666666666, 0.9583333333333334, 0.2916666666666667]","[0.2777777777777778, 0.5694444444444444, 0.9305555555555556, 0.18055555555555555]",0.9983942687747036,0.1604039931819775,0.1602880155114767,-0.0001159776705007,0.98828125,0.1580576388468956,0.1593203036755442,0.0012626648286486,"['CP3', 'CP4', 'C1', 'C3', 'FC1']","['CP3', 'CP4', 'C1', 'C3', 'FC1']",1,DeepConvNet
